%OpenBCI Raw EEG Data
%Number of channels = 8
%Sample Rate = 250.0 Hz
%First Column = SampleIndex
%Last Column = Timestamp 
%Other Columns = EEG data in microvolts followed by Accel Data (in G) interleaved with Aux Data
0, 0.00, 0.00, 0.00, 0.00, 0.00, 0.00, 0.00, 0.00, 0.000, 0.000, 0.000, 10:28:42.411, 1583738922411
1, -31621.37, -35477.83, -25621.38, -20332.35, -26700.97, -25053.31, -27901.26, -27923.72, 0.006, -0.018, 0.970, 10:28:42.897, 1583738922897
2, -30818.61, -35392.82, -25279.96, -20092.85, -25622.97, -24917.86, -27456.75, -27274.51, 0.000, 0.000, 0.000, 10:28:42.898, 1583738922898
3, -31043.87, -35436.36, -25239.28, -20057.94, -25756.50, -24905.12, -27637.91, -27315.26, 0.000, 0.000, 0.000, 10:28:42.898, 1583738922898
4, -31969.45, -35557.98, -25654.91, -20382.31, -26959.85, -25092.31, -28191.34, -28049.14, 0.000, 0.000, 0.000, 10:28:42.898, 1583738922898
5, -32345.90, -35586.23, -25875.63, -20530.93, -27551.68, -25168.35, -28364.81, -28424.49, 0.000, 0.000, 0.000, 10:28:42.898, 1583738922898
6, -31627.70, -35485.65, -25625.51, -20329.16, -26696.01, -25046.00, -27897.90, -27923.05, 0.000, 0.000, 0.000, 10:28:42.899, 1583738922899
7, -30824.02, -35399.04, -25291.04, -20088.21, -25624.15, -24912.00, -27454.15, -27274.09, 0.000, 0.000, 0.000, 10:28:42.899, 1583738922899
8, -31038.99, -35438.24, -25248.60, -20049.65, -25757.28, -24899.71, -27636.95, -27310.05, 0.004, -0.020, 0.970, 10:28:42.899, 1583738922899
9, -31962.46, -35555.28, -25661.28, -20375.85, -26959.91, -25090.70, -28192.86, -28043.10, 0.000, 0.000, 0.000, 10:28:42.899, 1583738922899
10, -32345.37, -35585.52, -25877.22, -20534.59, -27560.86, -25170.90, -28367.29, -28424.31, 0.000, 0.000, 0.000, 10:28:42.900, 1583738922900
11, -31633.44, -35484.73, -25620.75, -20332.08, -26706.20, -25050.22, -27902.93, -27928.44, 0.000, 0.000, 0.000, 10:28:42.900, 1583738922900
12, -30825.94, -35397.81, -25276.16, -20078.66, -25624.69, -24906.03, -27454.58, -27271.00, 0.000, 0.000, 0.000, 10:28:42.900, 1583738922900
13, -31035.33, -35435.56, -25227.50, -20038.18, -25747.40, -24890.92, -27632.50, -27301.31, 0.000, 0.000, 0.000, 10:28:42.901, 1583738922901
14, -31953.54, -35546.98, -25646.28, -20372.88, -26951.64, -25086.17, -28186.71, -28035.81, 0.000, 0.000, 0.000, 10:28:42.907, 1583738922907
15, -32337.45, -35574.70, -25875.65, -20533.70, -27557.87, -25169.90, -28365.86, -28421.83, 0.000, 0.000, 0.000, 10:28:42.907, 1583738922907
16, -31625.39, -35481.70, -25625.65, -20329.92, -26708.63, -25046.83, -27902.87, -27925.24, 0.000, 0.000, 0.000, 10:28:42.908, 1583738922908
17, -30817.85, -35391.33, -25278.41, -20079.53, -25622.59, -24905.18, -27450.24, -27268.57, 0.000, 0.000, 0.000, 10:28:42.908, 1583738922908
18, -31027.17, -35428.32, -25229.11, -20043.90, -25747.00, -24895.51, -27628.65, -27302.43, 0.004, -0.020, 0.974, 10:28:42.908, 1583738922908
19, -31950.07, -35553.73, -25650.21, -20380.63, -26953.54, -25094.17, -28188.19, -28040.96, 0.000, 0.000, 0.000, 10:28:42.908, 1583738922908
20, -32341.21, -35584.40, -25880.12, -20544.20, -27563.37, -25178.99, -28368.54, -28430.41, 0.000, 0.000, 0.000, 10:28:42.909, 1583738922909
21, -31634.09, -35482.14, -25628.38, -20337.76, -26715.43, -25054.25, -27904.99, -27935.05, 0.000, 0.000, 0.000, 10:28:42.909, 1583738922909
22, -30824.71, -35393.02, -25292.09, -20094.08, -25632.94, -24916.65, -27457.02, -27281.89, 0.000, 0.000, 0.000, 10:28:42.909, 1583738922909
23, -31026.23, -35429.41, -25246.72, -20057.43, -25752.79, -24904.80, -27635.49, -27310.75, 0.000, 0.000, 0.000, 10:28:42.909, 1583738922909
24, -31945.98, -35550.36, -25658.97, -20383.52, -26950.50, -25096.11, -28189.55, -28043.17, 0.000, 0.000, 0.000, 10:28:42.910, 1583738922910
25, -32334.64, -35582.52, -25876.99, -20528.42, -27555.10, -25166.74, -28362.73, -28422.90, 0.000, 0.000, 0.000, 10:28:42.910, 1583738922910
26, -31627.65, -35478.61, -25623.23, -20322.90, -26710.02, -25040.08, -27900.63, -27926.63, 0.000, 0.000, 0.000, 10:28:42.911, 1583738922911
27, -30819.57, -35389.27, -25290.48, -20084.25, -25630.41, -24904.45, -27454.45, -27274.80, 0.000, 0.000, 0.000, 10:28:42.911, 1583738922911
28, -31019.84, -35431.25, -25241.27, -20042.79, -25742.26, -24890.10, -27627.22, -27301.04, 0.008, -0.028, 0.972, 10:28:42.911, 1583738922911
29, -31944.22, -35555.32, -25654.88, -20378.24, -26945.72, -25087.62, -28184.63, -28038.88, 0.000, 0.000, 0.000, 10:28:42.911, 1583738922911
30, -32338.19, -35583.33, -25885.67, -20543.91, -27562.45, -25173.79, -28370.53, -28430.99, 0.000, 0.000, 0.000, 10:28:42.912, 1583738922912
31, -31634.33, -35481.83, -25635.60, -20343.55, -26721.76, -25050.45, -27909.10, -27936.46, 0.000, 0.000, 0.000, 10:28:42.912, 1583738922912
32, -30815.50, -35384.62, -25297.03, -20097.82, -25634.63, -24911.64, -27454.42, -27279.97, 0.000, 0.000, 0.000, 10:28:42.912, 1583738922912
33, -31008.60, -35410.48, -25242.34, -20051.32, -25735.78, -24895.69, -27622.98, -27302.05, 0.000, 0.000, 0.000, 10:28:42.912, 1583738922912
34, -31929.42, -35534.85, -25646.44, -20374.26, -26928.82, -25083.93, -28173.75, -28032.19, 0.000, 0.000, 0.000, 10:28:42.913, 1583738922913
35, -32334.23, -35577.56, -25875.54, -20526.97, -27551.90, -25163.68, -28361.68, -28425.05, 0.000, 0.000, 0.000, 10:28:42.913, 1583738922913
36, -31634.47, -35478.05, -25627.37, -20330.72, -26716.30, -25044.41, -27904.90, -27936.84, 0.000, 0.000, 0.000, 10:28:42.913, 1583738922913
37, -30815.70, -35383.10, -25289.12, -20090.87, -25629.72, -24909.16, -27453.02, -27280.68, 0.000, 0.000, 0.000, 10:28:42.913, 1583738922913
38, -31008.26, -35421.59, -25240.64, -20047.48, -25735.66, -24895.84, -27625.41, -27300.98, 0.002, -0.022, 0.968, 10:28:42.913, 1583738922913
39, -31933.47, -35540.23, -25655.69, -20382.33, -26935.39, -25094.68, -28182.67, -28037.22, 0.000, 0.000, 0.000, 10:28:42.914, 1583738922914
40, -32337.68, -35577.43, -25882.51, -20545.43, -27558.83, -25178.03, -28367.54, -28432.78, 0.000, 0.000, 0.000, 10:28:42.914, 1583738922914
41, -31639.50, -35480.87, -25630.88, -20343.04, -26725.15, -25054.79, -27912.46, -27946.32, 0.000, 0.000, 0.000, 10:28:42.914, 1583738922914
42, -30821.33, -35385.96, -25289.70, -20093.26, -25634.68, -24913.28, -27459.83, -27286.88, 0.000, 0.000, 0.000, 10:28:42.914, 1583738922914
43, -31012.42, -35424.74, -25234.25, -20046.03, -25730.01, -24895.91, -27626.17, -27300.11, 0.000, 0.000, 0.000, 10:28:42.914, 1583738922914
44, -31929.24, -35548.10, -25645.63, -20376.16, -26921.45, -25086.70, -28178.75, -28027.68, 0.000, 0.000, 0.000, 10:28:42.915, 1583738922915
45, -32336.80, -35577.96, -25886.52, -20549.05, -27557.38, -25175.60, -28371.52, -28432.16, 0.000, 0.000, 0.000, 10:28:42.915, 1583738922915
46, -31642.45, -35476.22, -25645.47, -20354.64, -26733.85, -25059.41, -27921.93, -27950.77, 0.000, 0.000, 0.000, 10:28:42.915, 1583738922915
47, -30826.43, -35388.04, -25309.01, -20114.20, -25648.96, -24923.96, -27472.33, -27294.43, 0.000, 0.000, 0.000, 10:28:42.915, 1583738922915
48, -31012.75, -35431.18, -25247.55, -20060.49, -25738.90, -24903.75, -27637.42, -27306.03, 0.002, -0.022, 0.970, 10:28:42.915, 1583738922915
49, -31923.68, -35543.07, -25648.83, -20374.96, -26928.31, -25086.17, -28184.45, -28025.94, 0.000, 0.000, 0.000, 10:28:42.916, 1583738922916
50, -32330.59, -35573.27, -25890.38, -20546.66, -27567.90, -25177.70, -28379.43, -28430.79, 0.000, 0.000, 0.000, 10:28:42.916, 1583738922916
51, -31642.87, -35480.29, -25649.03, -20350.66, -26748.42, -25062.32, -27930.65, -27952.89, 0.000, 0.000, 0.000, 10:28:42.916, 1583738922916
52, -30820.73, -35385.43, -25302.40, -20096.14, -25651.69, -24918.30, -27470.38, -27288.51, 0.000, 0.000, 0.000, 10:28:42.916, 1583738922916
53, -30999.21, -35408.52, -25240.73, -20046.18, -25739.29, -24899.48, -27631.27, -27296.31, 0.000, 0.000, 0.000, 10:28:42.917, 1583738922917
54, -31918.87, -35534.18, -25656.92, -20380.19, -26931.53, -25094.77, -28187.67, -28025.80, 0.000, 0.000, 0.000, 10:28:42.917, 1583738922917
55, -32330.95, -35577.09, -25890.18, -20545.07, -27566.05, -25178.61, -28379.54, -28428.76, 0.000, 0.000, 0.000, 10:28:42.917, 1583738922917
56, -31644.12, -35476.89, -25642.08, -20348.38, -26743.77, -25059.59, -27925.87, -27950.03, 0.000, 0.000, 0.000, 10:28:42.917, 1583738922917
57, -30825.80, -35382.65, -25300.12, -20107.20, -25647.31, -24923.11, -27468.44, -27292.15, 0.000, 0.000, 0.000, 10:28:42.918, 1583738922918
58, -31000.59, -35418.04, -25232.35, -20051.66, -25723.64, -24899.04, -27620.88, -27295.64, 0.000, 0.000, 0.000, 10:28:42.918, 1583738922918
59, -31914.56, -35529.48, -25638.05, -20367.96, -26910.78, -25084.36, -28172.79, -28018.42, -0.002, -0.024, 0.968, 10:28:42.918, 1583738922918
60, -32329.49, -35566.54, -25875.54, -20529.05, -27556.59, -25168.49, -28369.06, -28422.90, 0.000, 0.000, 0.000, 10:28:42.918, 1583738922918
61, -31649.71, -35482.92, -25637.36, -20338.77, -26746.41, -25054.20, -27921.82, -27948.15, 0.000, 0.000, 0.000, 10:28:42.919, 1583738922919
62, -30831.32, -35391.89, -25292.18, -20092.88, -25646.86, -24914.91, -27460.26, -27285.31, 0.000, 0.000, 0.000, 10:28:42.919, 1583738922919
63, -31003.75, -35424.86, -25220.50, -20033.24, -25716.26, -24888.44, -27612.54, -27284.91, 0.000, 0.000, 0.000, 10:28:42.919, 1583738922919
64, -31915.50, -35539.07, -25627.91, -20361.32, -26904.91, -25077.83, -28163.58, -28008.84, 0.000, 0.000, 0.000, 10:28:42.919, 1583738922919
65, -32335.96, -35572.69, -25873.75, -20537.14, -27557.29, -25168.33, -28365.70, -28420.33, 0.000, 0.000, 0.000, 10:28:42.920, 1583738922920
66, -31652.84, -35472.02, -25628.08, -20334.25, -26741.16, -25043.92, -27914.51, -27941.80, 0.000, 0.000, 0.000, 10:28:42.920, 1583738922920
67, -30828.44, -35375.93, -25293.28, -20095.22, -25648.83, -24912.94, -27460.08, -27286.05, 0.000, 0.000, 0.000, 10:28:42.920, 1583738922920
68, -30997.76, -35411.51, -25237.78, -20046.88, -25724.94, -24898.32, -27621.55, -27290.12, 0.000, 0.000, 0.000, 10:28:42.920, 1583738922920
69, -31909.30, -35533.73, -25642.86, -20375.56, -26911.54, -25090.55, -28175.36, -28016.50, 0.004, -0.022, 0.970, 10:28:42.920, 1583738922920
70, -32335.40, -35574.52, -25878.07, -20545.97, -27559.83, -25178.97, -28376.32, -28431.06, 0.000, 0.000, 0.000, 10:28:42.921, 1583738922921
71, -31660.37, -35476.60, -25635.08, -20345.29, -26749.47, -25056.89, -27928.26, -27956.31, 0.000, 0.000, 0.000, 10:28:42.921, 1583738922921
72, -30835.39, -35375.97, -25291.78, -20093.23, -25646.57, -24914.13, -27463.52, -27290.90, 0.000, 0.000, 0.000, 10:28:42.921, 1583738922921
73, -30998.20, -35414.55, -25227.09, -20042.21, -25712.31, -24893.23, -27616.23, -27288.73, 0.000, 0.000, 0.000, 10:28:42.921, 1583738922921
74, -31909.15, -35544.57, -25633.05, -20372.38, -26898.31, -25086.79, -28170.57, -28015.38, 0.000, 0.000, 0.000, 10:28:42.921, 1583738922921
75, -32338.68, -35580.73, -25878.36, -20542.84, -27557.42, -25177.29, -28375.63, -28433.88, 0.000, 0.000, 0.000, 10:28:42.921, 1583738922921
76, -31662.92, -35477.96, -25642.79, -20348.67, -26758.86, -25060.30, -27934.49, -27964.78, 0.000, 0.000, 0.000, 10:28:42.922, 1583738922922
77, -30831.44, -35381.69, -25302.96, -20104.07, -25657.52, -24923.29, -27473.58, -27302.41, 0.000, 0.000, 0.000, 10:28:42.922, 1583738922922
78, -30985.51, -35409.50, -25229.04, -20044.73, -25714.47, -24898.41, -27620.97, -27293.22, 0.000, 0.000, 0.000, 10:28:42.922, 1583738922922
79, -31900.34, -35530.53, -25624.24, -20370.22, -26892.63, -25087.22, -28166.86, -28013.69, 0.004, -0.022, 0.974, 10:28:42.922, 1583738922922
80, -32330.08, -35568.46, -25868.61, -20540.89, -27553.69, -25173.81, -28370.46, -28430.84, 0.000, 0.000, 0.000, 10:28:42.922, 1583738922922
81, -31657.74, -35471.82, -25628.98, -20333.61, -26753.27, -25045.33, -27927.07, -27955.30, 0.000, 0.000, 0.000, 10:28:42.922, 1583738922922
82, -30826.88, -35375.77, -25285.12, -20081.70, -25643.17, -24900.71, -27460.35, -27285.38, 0.000, 0.000, 0.000, 10:28:42.923, 1583738922923
83, -30979.40, -35404.29, -25216.77, -20026.09, -25694.07, -24877.24, -27608.02, -27273.51, 0.000, 0.000, 0.000, 10:28:42.923, 1583738922923
84, -31896.61, -35534.85, -25632.06, -20363.13, -26882.58, -25076.64, -28165.25, -28000.63, 0.000, 0.000, 0.000, 10:28:42.923, 1583738922923
85, -32336.25, -35579.89, -25880.99, -20542.41, -27553.20, -25172.00, -28374.67, -28426.46, 0.000, 0.000, 0.000, 10:28:42.923, 1583738922923
86, -31664.13, -35482.63, -25639.91, -20345.54, -26758.12, -25051.66, -27932.21, -27958.10, 0.000, 0.000, 0.000, 10:28:42.923, 1583738922923
87, -30832.29, -35388.87, -25300.41, -20098.17, -25654.50, -24912.83, -27469.29, -27292.93, 0.000, 0.000, 0.000, 10:28:42.923, 1583738922923
88, -30980.46, -35418.28, -25224.19, -20034.83, -25699.43, -24885.13, -27610.08, -27275.63, 0.000, 0.000, 0.000, 10:28:42.923, 1583738922923
89, -31894.69, -35540.84, -25624.42, -20363.69, -26879.63, -25078.52, -28161.10, -27998.22, 0.000, -0.018, 0.974, 10:28:42.924, 1583738922924
90, -32334.81, -35576.36, -25877.42, -20543.17, -27553.26, -25172.58, -28375.14, -28425.43, 0.000, 0.000, 0.000, 10:28:42.924, 1583738922924
91, -31673.79, -35487.10, -25644.78, -20353.43, -26768.40, -25058.41, -27942.21, -27967.40, 0.000, 0.000, 0.000, 10:28:42.924, 1583738922924
92, -30842.30, -35396.24, -25308.03, -20113.82, -25668.94, -24927.04, -27480.93, -27307.88, 0.000, 0.000, 0.000, 10:28:42.924, 1583738922924
93, -30983.16, -35423.02, -25228.55, -20047.19, -25710.00, -24897.45, -27616.50, -27285.24, 0.000, 0.000, 0.000, 10:28:42.924, 1583738922924
94, -31890.30, -35540.41, -25625.31, -20368.38, -26879.49, -25086.01, -28164.29, -28002.69, 0.000, 0.000, 0.000, 10:28:42.925, 1583738922925
95, -32337.16, -35580.31, -25882.45, -20546.48, -27558.40, -25183.04, -28381.26, -28436.16, 0.000, 0.000, 0.000, 10:28:42.925, 1583738922925
96, -31675.28, -35481.74, -25647.13, -20353.12, -26772.96, -25064.66, -27943.70, -27975.24, 0.000, 0.000, 0.000, 10:28:42.925, 1583738922925
97, -30835.10, -35382.59, -25296.92, -20096.10, -25657.23, -24917.10, -27470.88, -27299.44, 0.000, 0.000, 0.000, 10:28:42.925, 1583738922925
98, -30973.44, -35415.36, -25210.44, -20023.21, -25685.80, -24880.60, -27601.95, -27268.46, 0.000, 0.000, 0.000, 10:28:42.926, 1583738922926
99, -31881.83, -35537.06, -25614.81, -20347.89, -26862.39, -25068.98, -28150.19, -27984.03, 0.000, -0.018, 0.972, 10:28:42.926, 1583738922926
100, -32330.46, -35575.73, -25879.63, -20535.24, -27548.84, -25166.88, -28369.64, -28418.99, 0.000, 0.000, 0.000, 10:28:42.926, 1583738922926
101, -31673.07, -35478.68, -25652.76, -20348.58, -26772.16, -25053.11, -27938.43, -27963.19, 0.000, 0.000, 0.000, 10:28:42.926, 1583738922926
102, -30831.97, -35385.09, -25306.69, -20100.05, -25659.42, -24912.94, -27471.66, -27294.54, 0.000, 0.000, 0.000, 10:28:42.927, 1583738922927
103, -30964.94, -35410.44, -25219.29, -20028.86, -25686.00, -24880.78, -27603.98, -27266.89, 0.000, 0.000, 0.000, 10:28:42.927, 1583738922927
104, -31873.61, -35530.02, -25624.58, -20359.02, -26861.52, -25074.61, -28155.02, -27985.28, 0.000, 0.000, 0.000, 10:28:42.927, 1583738922927
105, -32331.30, -35571.88, -25883.86, -20542.41, -27551.92, -25170.50, -28374.94, -28423.06, 0.000, 0.000, 0.000, 10:28:42.927, 1583738922927
106, -31679.30, -35478.39, -25651.22, -20349.61, -26780.27, -25054.83, -27945.29, -27971.91, 0.000, 0.000, 0.000, 10:28:42.928, 1583738922928
107, -30831.82, -35374.61, -25297.79, -20095.00, -25658.26, -24908.31, -27469.38, -27294.50, 0.000, 0.000, 0.000, 10:28:42.928, 1583738922928
108, -30970.53, -35415.98, -25210.71, -20024.95, -25682.18, -24875.05, -27598.19, -27262.69, 0.000, 0.000, 0.000, 10:28:42.928, 1583738922928
109, -31883.11, -35547.36, -25610.05, -20345.99, -26850.05, -25062.59, -28144.58, -27976.20, 0.004, -0.020, 0.970, 10:28:42.928, 1583738922928
110, -32339.42, -35579.77, -25876.59, -20545.19, -27549.55, -25170.68, -28372.79, -28422.79, 0.000, 0.000, 0.000, 10:28:42.929, 1583738922929
111, -31687.02, -35480.33, -25652.36, -20362.39, -26784.36, -25062.81, -27946.85, -27976.76, 0.000, 0.000, 0.000, 10:28:42.929, 1583738922929
112, -30843.48, -35398.34, -25306.02, -20109.37, -25670.22, -24922.55, -27475.48, -27306.92, 0.000, 0.000, 0.000, 10:28:42.929, 1583738922929
113, -30968.38, -35426.31, -25210.22, -20033.09, -25683.18, -24888.98, -27603.42, -27273.49, 0.000, 0.000, 0.000, 10:28:42.930, 1583738922930
114, -31868.96, -35540.86, -25603.79, -20352.18, -26848.29, -25074.14, -28148.00, -27983.15, 0.000, 0.000, 0.000, 10:28:42.930, 1583738922930
115, -32330.93, -35582.39, -25864.86, -20539.67, -27546.22, -25172.40, -28370.64, -28425.96, 0.000, 0.000, 0.000, 10:28:42.930, 1583738922930
116, -31683.13, -35483.64, -25638.05, -20348.56, -26782.91, -25055.16, -27943.21, -27976.09, 0.000, 0.000, 0.000, 10:28:42.930, 1583738922930
117, -30837.94, -35387.08, -25299.47, -20104.21, -25669.73, -24917.32, -27471.52, -27306.10, 0.000, 0.000, 0.000, 10:28:42.933, 1583738922933
118, -30961.99, -35415.87, -25213.21, -20031.21, -25683.38, -24885.85, -27599.22, -27271.61, 0.000, 0.000, 0.000, 10:28:42.933, 1583738922933
119, -31873.41, -35545.24, -25612.88, -20352.31, -26850.43, -25076.35, -28149.50, -27986.26, 0.000, -0.018, 0.968, 10:28:42.934, 1583738922934
120, -32336.63, -35587.51, -25880.68, -20553.37, -27557.13, -25182.57, -28378.80, -28435.42, 0.000, 0.000, 0.000, 10:28:42.934, 1583738922934
121, -31687.38, -35485.58, -25653.92, -20367.15, -26795.94, -25068.42, -27951.04, -27988.96, 0.000, 0.000, 0.000, 10:28:43.377, 1583738923377
122, -30839.73, -35383.32, -25302.53, -20105.06, -25668.83, -24918.33, -27471.63, -27307.10, 0.000, 0.000, 0.000, 10:28:43.378, 1583738923378
123, -30960.56, -35409.34, -25208.27, -20018.98, -25669.46, -24875.35, -27591.37, -27258.09, 0.000, 0.000, 0.000, 10:28:43.378, 1583738923378
124, -31867.08, -35538.76, -25604.73, -20334.63, -26832.22, -25062.59, -28136.17, -27966.01, 0.000, 0.000, 0.000, 10:28:43.378, 1583738923378
125, -32336.20, -35586.86, -25877.78, -20536.36, -27545.91, -25173.05, -28369.32, -28421.20, 0.000, 0.000, 0.000, 10:28:43.378, 1583738923378
126, -31693.39, -35492.73, -25652.52, -20354.04, -26792.79, -25065.40, -27947.93, -27982.30, 0.000, 0.000, 0.000, 10:28:43.379, 1583738923379
127, -30844.27, -35393.58, -25304.90, -20102.76, -25675.04, -24923.58, -27473.33, -27307.37, 0.000, 0.000, 0.000, 10:28:43.379, 1583738923379
128, -30961.01, -35418.44, -25204.77, -20017.60, -25672.25, -24881.98, -27591.69, -27258.06, 0.000, 0.000, 0.000, 10:28:43.379, 1583738923379
129, -31865.00, -35539.65, -25603.43, -20341.16, -26835.01, -25072.33, -28141.76, -27968.31, -0.002, -0.022, 0.974, 10:28:43.379, 1583738923379
130, -32340.38, -35584.69, -25878.33, -20544.43, -27554.36, -25181.63, -28379.09, -28427.44, 0.000, 0.000, 0.000, 10:28:43.379, 1583738923379
131, -31704.76, -35488.45, -25651.53, -20356.00, -26802.42, -25066.70, -27954.52, -27988.34, 0.000, 0.000, 0.000, 10:28:43.379, 1583738923379
132, -30851.24, -35395.26, -25297.08, -20098.96, -25671.89, -24918.75, -27473.13, -27308.04, 0.000, 0.000, 0.000, 10:28:43.379, 1583738923379
133, -30964.29, -35420.65, -25201.59, -20018.13, -25664.32, -24879.97, -27590.70, -27258.71, 0.000, 0.000, 0.000, 10:28:43.380, 1583738923380
134, -31866.50, -35534.58, -25598.80, -20338.84, -26823.48, -25066.68, -28135.32, -27964.09, 0.000, 0.000, 0.000, 10:28:43.380, 1583738923380
135, -32340.98, -35576.96, -25875.07, -20541.34, -27546.42, -25172.80, -28373.39, -28420.71, 0.000, 0.000, 0.000, 10:28:43.380, 1583738923380
136, -31704.38, -35491.55, -25648.13, -20351.87, -26797.26, -25058.36, -27952.15, -27983.36, 0.000, 0.000, 0.000, 10:28:43.381, 1583738923381
137, -30849.07, -35393.36, -25296.81, -20095.71, -25672.34, -24913.19, -27472.17, -27304.24, 0.000, 0.000, 0.000, 10:28:43.381, 1583738923381
138, -30956.92, -35414.95, -25202.64, -20020.84, -25663.22, -24878.29, -27588.73, -27254.60, 0.000, 0.000, 0.000, 10:28:43.381, 1583738923381
139, -31857.65, -35543.74, -25602.51, -20341.52, -26821.11, -25067.01, -28134.10, -27961.29, 0.004, -0.018, 0.976, 10:28:43.381, 1583738923381
140, -32335.82, -35589.61, -25881.67, -20544.78, -27549.62, -25175.30, -28372.32, -28422.01, 0.000, 0.000, 0.000, 10:28:43.381, 1583738923381
141, -31705.70, -35494.77, -25652.74, -20357.86, -26804.35, -25062.07, -27950.25, -27986.55, 0.000, 0.000, 0.000, 10:28:43.381, 1583738923381
142, -30851.42, -35395.57, -25302.93, -20102.87, -25674.60, -24919.31, -27470.63, -27308.78, 0.000, 0.000, 0.000, 10:28:43.382, 1583738923382
143, -30953.05, -35415.58, -25211.43, -20025.80, -25659.82, -24883.68, -27587.95, -27254.53, 0.000, 0.000, 0.000, 10:28:43.382, 1583738923382
144, -31856.13, -35540.03, -25614.96, -20348.92, -26819.77, -25075.10, -28137.29, -27962.93, 0.000, 0.000, 0.000, 10:28:43.382, 1583738923382
145, -32335.02, -35583.51, -25879.43, -20537.16, -27542.91, -25172.91, -28369.26, -28419.66, 0.000, 0.000, 0.000, 10:28:43.382, 1583738923382
146, -31707.33, -35485.96, -25654.71, -20359.91, -26804.93, -25062.29, -27952.67, -27990.66, 0.000, 0.000, 0.000, 10:28:43.382, 1583738923382
147, -30852.04, -35391.84, -25308.63, -20110.62, -25681.33, -24923.16, -27475.75, -27314.63, 0.000, 0.000, 0.000, 10:28:43.382, 1583738923382
148, -30944.92, -35409.99, -25201.57, -20017.71, -25652.87, -24877.89, -27585.79, -27249.59, 0.000, 0.000, 0.000, 10:28:43.383, 1583738923383
149, -31843.39, -35527.58, -25592.10, -20329.18, -26808.21, -25061.27, -28127.93, -27950.03, 0.000, 0.000, 0.000, 10:28:43.383, 1583738923383
150, -32331.06, -35577.79, -25870.27, -20534.37, -27542.13, -25170.21, -28367.96, -28417.16, 0.004, -0.016, 0.972, 10:28:43.383, 1583738923383
151, -31703.98, -35486.66, -25646.53, -20349.61, -26807.43, -25057.40, -27953.92, -27987.49, 0.000, 0.000, 0.000, 10:28:43.385, 1583738923385
152, -30846.17, -35388.78, -25296.14, -20096.61, -25677.17, -24913.43, -27473.29, -27308.22, 0.000, 0.000, 0.000, 10:28:43.385, 1583738923385
153, -30941.36, -35409.43, -25193.23, -20012.41, -25650.12, -24873.11, -27582.10, -27245.12, 0.000, 0.000, 0.000, 10:28:43.385, 1583738923385
154, -31840.69, -35528.19, -25592.34, -20334.25, -26806.02, -25063.84, -28130.03, -27949.13, 0.000, 0.000, 0.000, 10:28:43.386, 1583738923386
155, -32332.63, -35579.93, -25882.69, -20549.99, -27548.84, -25183.17, -28381.82, -28426.52, 0.000, 0.000, 0.000, 10:28:43.393, 1583738923393
156, -31711.51, -35491.68, -25661.86, -20364.16, -26821.78, -25073.13, -27971.91, -28001.91, 0.000, 0.000, 0.000, 10:28:43.394, 1583738923394
157, -30849.85, -35390.45, -25301.55, -20097.62, -25685.30, -24922.89, -27483.62, -27317.00, 0.000, 0.000, 0.000, 10:28:43.394, 1583738923394
158, -30938.37, -35406.86, -25189.45, -20002.78, -25650.44, -24875.97, -27586.70, -27246.84, 0.000, 0.000, 0.000, 10:28:43.394, 1583738923394
159, -31838.54, -35524.32, -25589.15, -20330.86, -26809.17, -25067.79, -28133.45, -27950.34, 0.000, 0.000, 0.000, 10:28:43.395, 1583738923395
160, -32333.07, -35579.55, -25872.63, -20544.54, -27550.74, -25178.81, -28377.33, -28421.83, 0.002, -0.016, 0.974, 10:28:43.395, 1583738923395
161, -31715.65, -35488.40, -25653.90, -20361.19, -26823.08, -25064.53, -27965.83, -27995.47, 0.000, 0.000, 0.000, 10:28:43.396, 1583738923396
162, -30855.67, -35383.17, -25303.72, -20095.71, -25689.71, -24913.43, -27481.11, -27309.34, 0.000, 0.000, 0.000, 10:28:43.396, 1583738923396
163, -30944.45, -35415.91, -25200.59, -20009.82, -25650.17, -24874.27, -27588.91, -27244.56, 0.000, 0.000, 0.000, 10:28:43.396, 1583738923396
164, -31835.23, -35538.45, -25594.13, -20324.93, -26797.37, -25058.45, -28127.46, -27941.60, 0.000, 0.000, 0.000, 10:28:43.396, 1583738923396
165, -32332.36, -35583.68, -25878.67, -20540.02, -27546.27, -25173.90, -28375.11, -28418.95, 0.000, 0.000, 0.000, 10:28:43.396, 1583738923396
166, -31719.65, -35493.23, -25661.10, -20365.99, -26828.15, -25070.19, -27967.24, -28002.26, 0.000, 0.000, 0.000, 10:28:43.397, 1583738923397
167, -30857.57, -35394.28, -25307.11, -20103.83, -25691.52, -24923.04, -27481.60, -27318.88, 0.000, 0.000, 0.000, 10:28:43.397, 1583738923397
168, -30935.15, -35404.74, -25194.55, -20006.08, -25643.66, -24873.62, -27581.47, -27242.01, 0.000, 0.000, 0.000, 10:28:43.397, 1583738923397
169, -31831.28, -35524.30, -25592.57, -20332.24, -26796.95, -25064.96, -28127.14, -27943.72, 0.000, 0.000, 0.000, 10:28:43.397, 1583738923397
170, -32331.75, -35574.50, -25880.46, -20545.25, -27550.67, -25178.37, -28376.01, -28422.12, 0.004, -0.020, 0.970, 10:28:43.397, 1583738923397
171, -31719.85, -35488.02, -25654.82, -20358.21, -26829.04, -25063.79, -27963.98, -28000.50, 0.000, 0.000, 0.000, 10:28:43.398, 1583738923398
172, -30856.52, -35397.32, -25303.40, -20105.55, -25693.15, -24923.36, -27478.70, -27321.97, 0.000, 0.000, 0.000, 10:28:43.398, 1583738923398
173, -30934.32, -35415.89, -25186.86, -20011.31, -25640.20, -24877.58, -27575.53, -27245.12, 0.000, 0.000, 0.000, 10:28:43.398, 1583738923398
174, -31834.38, -35538.76, -25582.76, -20330.86, -26786.69, -25063.66, -28118.07, -27941.58, 0.000, 0.000, 0.000, 10:28:43.398, 1583738923398
175, -32340.51, -35586.90, -25876.30, -20550.39, -27551.07, -25180.36, -28374.33, -28426.25, 0.000, 0.000, 0.000, 10:28:43.398, 1583738923398
176, -31731.25, -35500.18, -25656.72, -20369.35, -26839.77, -25068.58, -27968.38, -28009.53, 0.000, 0.000, 0.000, 10:28:43.398, 1583738923398
177, -30867.45, -35405.30, -25301.41, -20106.82, -25696.93, -24919.00, -27481.29, -27323.08, 0.000, 0.000, 0.000, 10:28:43.399, 1583738923399
178, -30940.92, -35424.45, -25193.25, -20018.45, -25642.59, -24877.13, -27583.88, -27246.48, 0.000, 0.000, 0.000, 10:28:43.399, 1583738923399
179, -31835.72, -35545.60, -25590.00, -20346.10, -26792.16, -25072.40, -28130.09, -27946.88, 0.000, 0.000, 0.000, 10:28:43.399, 1583738923399
180, -32338.37, -35591.48, -25879.70, -20557.55, -27551.27, -25184.69, -28384.30, -28427.04, 0.006, -0.022, 0.968, 10:28:43.399, 1583738923399
181, -31735.47, -35498.08, -25654.21, -20359.35, -26840.06, -25062.76, -27975.82, -28005.93, 0.000, 0.000, 0.000, 10:28:43.399, 1583738923399
182, -30867.82, -35398.28, -25294.51, -20090.60, -25695.83, -24910.71, -27483.12, -27313.99, 0.000, 0.000, 0.000, 10:28:43.399, 1583738923399
183, -30934.01, -35411.80, -25178.57, -19993.90, -25629.38, -24863.95, -27573.89, -27229.88, 0.000, 0.000, 0.000, 10:28:43.400, 1583738923400
184, -31829.87, -35532.99, -25580.65, -20324.26, -26776.12, -25059.28, -28118.25, -27931.72, 0.000, 0.000, 0.000, 10:28:43.400, 1583738923400
185, -32338.48, -35587.95, -25879.23, -20551.67, -27548.17, -25181.83, -28378.31, -28424.00, 0.000, 0.000, 0.000, 10:28:43.400, 1583738923400
186, -31734.96, -35498.14, -25657.77, -20360.40, -26843.55, -25065.54, -27971.62, -28008.72, 0.000, 0.000, 0.000, 10:28:43.400, 1583738923400
187, -30865.70, -35390.81, -25301.03, -20099.07, -25697.96, -24918.39, -27480.33, -27320.85, 0.000, 0.000, 0.000, 10:28:43.400, 1583738923400
188, -30933.76, -35414.46, -25187.33, -20009.86, -25634.50, -24878.03, -27577.29, -27238.64, 0.000, 0.000, 0.000, 10:28:43.401, 1583738923401
189, -31825.93, -35539.65, -25580.70, -20334.25, -26776.99, -25068.89, -28117.91, -27934.03, 0.000, 0.000, 0.000, 10:28:43.401, 1583738923401
190, -32341.68, -35588.43, -25883.70, -20556.70, -27552.28, -25188.89, -28377.06, -28427.33, 0.006, -0.020, 0.970, 10:28:43.401, 1583738923401
191, -31740.73, -35497.09, -25667.33, -20374.62, -26854.39, -25078.03, -27974.46, -28019.10, 0.000, 0.000, 0.000, 10:28:43.401, 1583738923401
192, -30862.46, -35390.10, -25298.15, -20102.89, -25701.13, -24920.41, -27474.36, -27323.26, 0.000, 0.000, 0.000, 10:28:43.401, 1583738923401
193, -30919.30, -35404.02, -25180.22, -20006.62, -25628.60, -24870.81, -27564.55, -27232.92, 0.000, 0.000, 0.000, 10:28:43.401, 1583738923401
194, -31811.83, -35528.57, -25580.14, -20330.83, -26770.93, -25064.37, -28110.96, -27930.31, 0.000, 0.000, 0.000, 10:28:43.401, 1583738923401
195, -32332.78, -35578.34, -25884.12, -20548.56, -27548.66, -25182.86, -28374.73, -28424.94, 0.000, 0.000, 0.000, 10:28:43.402, 1583738923402
196, -31743.52, -35486.99, -25671.76, -20367.80, -26857.30, -25072.24, -27977.32, -28020.01, 0.000, 0.000, 0.000, 10:28:43.402, 1583738923402
197, -30870.60, -35396.02, -25305.44, -20106.38, -25704.64, -24921.05, -27481.27, -27326.73, 0.000, 0.000, 0.000, 10:28:43.402, 1583738923402
198, -30932.38, -35420.88, -25182.97, -20008.19, -25629.18, -24872.75, -27569.31, -27234.37, 0.000, 0.000, 0.000, 10:28:43.402, 1583738923402
199, -31823.29, -35541.73, -25583.00, -20331.15, -26771.80, -25064.73, -28115.34, -27929.11, 0.000, 0.000, 0.000, 10:28:43.402, 1583738923402
200, -32334.01, -35585.07, -25882.18, -20553.48, -27550.42, -25181.36, -28376.50, -28421.58, 0.006, -0.016, 0.968, 10:28:43.402, 1583738923402
201, -31746.49, -35492.58, -25673.75, -20373.59, -26866.73, -25072.96, -27983.29, -28021.60, 0.000, 0.000, 0.000, 10:28:43.403, 1583738923403
202, -30873.53, -35389.16, -25316.93, -20110.47, -25718.70, -24922.55, -27490.95, -27329.52, 0.000, 0.000, 0.000, 10:28:43.403, 1583738923403
203, -30925.52, -35414.44, -25193.95, -20010.22, -25633.96, -24872.13, -27573.60, -27230.71, 0.000, 0.000, 0.000, 10:28:43.403, 1583738923403
204, -31814.11, -35537.62, -25578.71, -20325.87, -26764.22, -25058.34, -28111.25, -27917.53, 0.000, 0.000, 0.000, 10:28:43.403, 1583738923403
205, -32338.75, -35587.60, -25882.96, -20556.16, -27556.39, -25182.37, -28381.73, -28419.37, 0.000, 0.000, 0.000, 10:28:43.403, 1583738923403
206, -31750.43, -35504.58, -25667.31, -20373.90, -26869.30, -25069.58, -27986.02, -28018.22, 0.000, 0.000, 0.000, 10:28:43.403, 1583738923403
207, -30874.04, -35398.95, -25308.19, -20108.19, -25710.56, -24918.04, -27488.98, -27326.26, 0.000, 0.000, 0.000, 10:28:43.403, 1583738923403
208, -30923.10, -35409.74, -25180.60, -20002.20, -25617.31, -24867.23, -27569.80, -27226.39, 0.000, 0.000, 0.000, 10:28:43.404, 1583738923404
209, -31807.96, -35529.71, -25566.91, -20317.04, -26747.95, -25054.49, -28106.02, -27915.88, 0.000, 0.000, 0.000, 10:28:43.404, 1583738923404
210, -32338.57, -35584.56, -25881.02, -20555.36, -27546.94, -25185.30, -28379.16, -28426.19, 0.004, -0.016, 0.972, 10:28:43.404, 1583738923404
211, -31750.18, -35490.81, -25675.74, -20383.92, -26867.60, -25079.10, -27985.93, -28030.23, 0.000, 0.000, 0.000, 10:28:43.404, 1583738923404
212, -30870.13, -35387.32, -25309.42, -20116.41, -25711.01, -24926.06, -27484.96, -27334.93, 0.000, 0.000, 0.000, 10:28:43.404, 1583738923404
213, -30912.44, -35398.21, -25181.21, -20005.93, -25618.32, -24870.83, -27562.09, -27227.20, 0.000, 0.000, 0.000, 10:28:43.404, 1583738923404
214, -31798.55, -35521.88, -25570.15, -20322.52, -26748.51, -25058.79, -28102.09, -27913.08, 0.000, 0.000, 0.000, 10:28:43.404, 1583738923404
215, -32329.27, -35587.80, -25873.78, -20548.34, -27542.40, -25179.13, -28370.93, -28416.53, 0.000, 0.000, 0.000, 10:28:43.405, 1583738923405
216, -31748.80, -35493.52, -25664.81, -20368.23, -26866.73, -25068.75, -27979.71, -28021.64, 0.000, 0.000, 0.000, 10:28:43.405, 1583738923405
217, -30869.26, -35384.98, -25310.82, -20111.74, -25716.26, -24924.47, -27486.48, -27332.18, 0.000, 0.000, 0.000, 10:28:43.405, 1583738923405
218, -30908.93, -35399.55, -25182.84, -20010.71, -25618.23, -24875.52, -27565.64, -27228.51, 0.000, 0.000, 0.000, 10:28:43.405, 1583738923405
219, -31793.25, -35515.63, -25567.62, -20324.15, -26745.56, -25060.64, -28102.60, -27914.04, 0.000, 0.000, 0.000, 10:28:43.405, 1583738923405
220, -32326.61, -35569.65, -25872.79, -20554.26, -27545.10, -25181.92, -28372.90, -28420.85, 0.000, -0.014, 0.972, 10:28:43.405, 1583738923405
221, -31752.46, -35486.57, -25665.35, -20378.08, -26880.30, -25072.85, -27985.70, -28030.09, 0.000, 0.000, 0.000, 10:28:43.405, 1583738923405
222, -30876.39, -35389.49, -25308.57, -20108.99, -25722.95, -24920.21, -27487.86, -27335.71, 0.000, 0.000, 0.000, 10:28:43.406, 1583738923406
223, -30909.87, -35401.16, -25179.37, -19999.96, -25609.44, -24864.79, -27561.18, -27221.34, 0.000, 0.000, 0.000, 10:28:43.406, 1583738923406
224, -31791.69, -35519.09, -25567.76, -20317.13, -26737.74, -25052.66, -28097.68, -27905.50, 0.000, 0.000, 0.000, 10:28:43.406, 1583738923406
225, -32331.46, -35583.33, -25883.36, -20554.57, -27545.42, -25180.69, -28375.43, -28420.51, 0.000, 0.000, 0.000, 10:28:43.406, 1583738923406
226, -31755.79, -35490.14, -25677.15, -20381.26, -26879.67, -25072.38, -27986.22, -28032.95, 0.000, 0.000, 0.000, 10:28:43.407, 1583738923407
227, -30880.43, -35392.73, -25319.81, -20118.42, -25724.24, -24924.29, -27485.69, -27340.70, 0.000, 0.000, 0.000, 10:28:43.407, 1583738923407
228, -30915.01, -35415.51, -25184.63, -20003.54, -25611.83, -24867.12, -27557.69, -27225.03, 0.000, 0.000, 0.000, 10:28:43.407, 1583738923407
229, -31795.02, -35529.37, -25564.61, -20311.23, -26729.36, -25049.29, -28092.77, -27903.60, 0.000, 0.000, 0.000, 10:28:43.407, 1583738923407
230, -32329.54, -35573.96, -25877.48, -20549.72, -27539.00, -25176.60, -28367.51, -28418.10, -0.002, -0.018, 0.972, 10:28:43.408, 1583738923408
231, -31764.22, -35492.45, -25677.48, -20384.57, -26882.84, -25077.23, -27986.04, -28038.81, 0.000, 0.000, 0.000, 10:28:43.408, 1583738923408
232, -30886.06, -35398.81, -25325.40, -20131.37, -25730.39, -24935.58, -27491.21, -27350.73, 0.000, 0.000, 0.000, 10:28:43.408, 1583738923408
233, -30908.19, -35408.70, -25189.21, -20017.71, -25608.39, -24877.09, -27558.09, -27231.31, 0.000, 0.000, 0.000, 10:28:43.408, 1583738923408
234, -31786.97, -35525.84, -25567.36, -20322.90, -26728.53, -25058.23, -28094.40, -27907.81, 0.000, 0.000, 0.000, 10:28:43.409, 1583738923409
235, -32333.63, -35584.85, -25884.46, -20561.35, -27547.16, -25187.96, -28377.04, -28426.05, 0.000, 0.000, 0.000, 10:28:43.409, 1583738923409
236, -31760.46, -35493.27, -25676.32, -20382.31, -26890.98, -25076.35, -27989.01, -28037.45, 0.000, 0.000, 0.000, 10:28:43.409, 1583738923409
237, -30876.63, -35385.63, -25311.94, -20115.85, -25729.61, -24924.34, -27482.90, -27339.69, 0.000, 0.000, 0.000, 10:28:43.409, 1583738923409
238, -30900.71, -35397.70, -25173.99, -20004.34, -25604.59, -24870.00, -27550.02, -27220.85, 0.000, 0.000, 0.000, 10:28:43.409, 1583738923409
239, -31778.61, -35517.03, -25552.42, -20313.31, -26721.93, -25051.81, -28086.66, -27898.04, 0.000, 0.000, 0.000, 10:28:43.410, 1583738923410
240, -32333.00, -35574.50, -25872.97, -20550.82, -27542.85, -25180.07, -28371.81, -28418.74, 0.000, 0.000, 0.000, 10:28:43.410, 1583738923410
241, -31775.60, -35497.18, -25673.50, -20377.39, -26892.86, -25072.98, -27992.43, -28037.92, 0.000, -0.022, 0.966, 10:28:43.855, 1583738923855
242, -30893.66, -35399.29, -25320.32, -20119.81, -25733.25, -24927.94, -27495.93, -27345.50, 0.000, 0.000, 0.000, 10:28:43.856, 1583738923856
243, -30912.51, -35413.45, -25191.87, -20013.77, -25609.60, -24876.42, -27563.30, -27226.35, 0.000, 0.000, 0.000, 10:28:43.856, 1583738923856
244, -31788.45, -35527.79, -25573.19, -20323.35, -26728.06, -25058.92, -28099.85, -27904.01, 0.000, 0.000, 0.000, 10:28:43.856, 1583738923856
245, -32333.52, -35578.86, -25883.90, -20558.04, -27545.73, -25181.01, -28377.55, -28422.03, 0.000, 0.000, 0.000, 10:28:43.856, 1583738923856
246, -31772.85, -35489.59, -25677.64, -20385.82, -26897.26, -25074.54, -27994.75, -28044.62, 0.000, 0.000, 0.000, 10:28:43.857, 1583738923857
247, -30886.85, -35387.97, -25321.37, -20126.94, -25733.94, -24929.62, -27491.71, -27352.25, 0.000, 0.000, 0.000, 10:28:43.857, 1583738923857
248, -30905.02, -35407.80, -25183.82, -20011.02, -25600.03, -24871.32, -27552.82, -27226.50, 0.000, 0.000, 0.000, 10:28:43.857, 1583738923857
249, -31783.60, -35527.18, -25553.68, -20310.45, -26712.05, -25046.36, -28086.24, -27897.52, 0.000, 0.000, 0.000, 10:28:43.858, 1583738923858
250, -32342.62, -35587.30, -25873.04, -20554.08, -27539.79, -25177.14, -28376.03, -28424.47, 0.000, 0.000, 0.000, 10:28:43.858, 1583738923858
251, -31786.95, -35499.31, -25678.94, -20381.33, -26899.88, -25071.71, -27999.16, -28047.79, 0.000, -0.022, 0.966, 10:28:43.858, 1583738923858
252, -30898.42, -35393.58, -25327.36, -20119.63, -25741.18, -24925.90, -27496.20, -27352.14, 0.000, 0.000, 0.000, 10:28:43.864, 1583738923864
253, -30908.88, -35401.94, -25187.31, -20001.19, -25602.27, -24867.95, -27557.51, -27224.33, 0.000, 0.000, 0.000, 10:28:43.865, 1583738923865
254, -31780.76, -35516.86, -25553.81, -20303.23, -26712.99, -25045.80, -28089.82, -27895.40, 0.000, 0.000, 0.000, 10:28:43.865, 1583738923865
255, -32334.84, -35575.41, -25871.12, -20545.54, -27542.65, -25175.08, -28375.40, -28420.02, 0.000, 0.000, 0.000, 10:28:43.865, 1583738923865
0, -31775.42, -35494.48, -25676.34, -20376.97, -26902.31, -25070.97, -27997.48, -28046.65, 0.000, 0.000, 0.000, 10:28:43.865, 1583738923865
1, -30886.73, -35386.77, -25321.42, -20116.70, -25740.09, -24924.74, -27492.67, -27350.38, 0.000, 0.000, 0.000, 10:28:43.866, 1583738923866
2, -30901.06, -35399.93, -25183.04, -20007.85, -25596.88, -24871.39, -27549.91, -27221.05, 0.000, 0.000, 0.000, 10:28:43.867, 1583738923867
3, -31770.95, -35518.98, -25553.83, -20309.53, -26702.53, -25050.09, -28081.52, -27888.65, 0.000, 0.000, 0.000, 10:28:43.867, 1583738923867
4, -32327.55, -35574.05, -25875.52, -20551.22, -27538.91, -25180.33, -28370.55, -28416.26, 0.000, 0.000, 0.000, 10:28:43.867, 1583738923867
5, -31781.86, -35490.25, -25685.93, -20389.57, -26915.05, -25082.05, -28000.86, -28051.13, -0.002, -0.026, 0.970, 10:28:43.868, 1583738923868
6, -30894.63, -35388.60, -25326.80, -20126.16, -25747.46, -24933.17, -27492.35, -27353.91, 0.000, 0.000, 0.000, 10:28:43.868, 1583738923868
7, -30900.32, -35400.04, -25183.60, -20010.69, -25595.05, -24876.42, -27545.66, -27220.67, 0.000, 0.000, 0.000, 10:28:43.868, 1583738923868
8, -31772.58, -35513.57, -25555.89, -20310.58, -26700.61, -25052.50, -28076.70, -27886.26, 0.000, 0.000, 0.000, 10:28:43.868, 1583738923868
9, -32338.64, -35569.27, -25877.84, -20554.04, -27537.37, -25183.84, -28371.61, -28417.00, 0.000, 0.000, 0.000, 10:28:43.868, 1583738923868
10, -31796.74, -35493.99, -25685.93, -20388.57, -26911.61, -25082.32, -28003.29, -28052.91, 0.000, 0.000, 0.000, 10:28:43.869, 1583738923869
11, -30900.86, -35391.97, -25324.17, -20120.68, -25740.76, -24930.49, -27491.42, -27354.22, 0.000, 0.000, 0.000, 10:28:43.869, 1583738923869
12, -30899.54, -35403.42, -25185.34, -20007.36, -25591.27, -24874.72, -27550.13, -27220.76, 0.000, 0.000, 0.000, 10:28:43.869, 1583738923869
13, -31770.63, -35518.71, -25555.78, -20311.41, -26699.54, -25054.72, -28089.57, -27889.66, 0.000, 0.000, 0.000, 10:28:43.869, 1583738923869
14, -32336.18, -35573.56, -25883.41, -20555.20, -27543.29, -25184.25, -28383.74, -28422.50, 0.000, 0.000, 0.000, 10:28:43.870, 1583738923870
15, -31797.90, -35495.44, -25698.78, -20391.96, -26926.14, -25082.43, -28015.77, -28060.27, 0.000, -0.024, 0.968, 10:28:43.870, 1583738923870
16, -30903.72, -35392.27, -25338.45, -20128.57, -25755.82, -24930.11, -27505.09, -27358.36, 0.000, 0.000, 0.000, 10:28:43.870, 1583738923870
17, -30897.24, -35403.17, -25185.21, -20012.43, -25593.46, -24871.28, -27555.07, -27220.49, 0.000, 0.000, 0.000, 10:28:43.870, 1583738923870
18, -31766.54, -35516.07, -25541.56, -20303.61, -26690.75, -25041.13, -28083.51, -27881.21, 0.000, 0.000, 0.000, 10:28:43.870, 1583738923870
19, -32334.35, -35576.13, -25866.42, -20543.98, -27534.93, -25168.98, -28378.73, -28414.45, 0.000, 0.000, 0.000, 10:28:43.871, 1583738923871
20, -31798.98, -35495.35, -25684.59, -20382.46, -26922.47, -25072.31, -28015.36, -28061.52, 0.000, 0.000, 0.000, 10:28:43.871, 1583738923871
21, -30905.80, -35389.85, -25324.28, -20118.89, -25749.32, -24922.66, -27501.90, -27360.93, 0.000, 0.000, 0.000, 10:28:43.871, 1583738923871
22, -30902.94, -35407.31, -25177.47, -19998.13, -25582.26, -24861.78, -27546.47, -27214.16, 0.000, 0.000, 0.000, 10:28:43.871, 1583738923871
23, -31773.14, -35521.86, -25544.71, -20295.54, -26684.76, -25037.66, -28075.76, -27874.57, 0.000, 0.000, 0.000, 10:28:43.871, 1583738923871
24, -32341.34, -35575.59, -25874.24, -20552.00, -27537.57, -25176.98, -28374.73, -28416.82, 0.000, 0.000, 0.000, 10:28:43.872, 1583738923872
25, -31804.50, -35494.03, -25686.47, -20394.80, -26927.62, -25080.15, -28008.28, -28063.20, 0.004, -0.022, 0.968, 10:28:43.872, 1583738923872
26, -30910.16, -35390.10, -25323.54, -20126.76, -25754.89, -24928.43, -27495.24, -27361.91, 0.000, 0.000, 0.000, 10:28:43.872, 1583738923872
27, -30892.86, -35393.05, -25173.96, -20004.30, -25585.50, -24868.26, -27538.62, -27214.19, 0.000, 0.000, 0.000, 10:28:43.872, 1583738923872
28, -31758.16, -35505.61, -25534.52, -20298.98, -26680.40, -25044.03, -28069.68, -27873.38, 0.000, 0.000, 0.000, 10:28:43.873, 1583738923873
29, -32334.39, -35580.02, -25863.09, -20549.84, -27537.01, -25180.71, -28372.21, -28415.39, 0.000, 0.000, 0.000, 10:28:43.873, 1583738923873
30, -31806.24, -35504.56, -25678.96, -20389.17, -26931.04, -25082.12, -28009.08, -28061.99, 0.000, 0.000, 0.000, 10:28:43.873, 1583738923873
31, -30908.82, -35399.35, -25322.27, -20126.76, -25761.55, -24933.10, -27498.63, -27361.93, 0.000, 0.000, 0.000, 10:28:43.873, 1583738923873
32, -30887.09, -35404.36, -25174.12, -20006.08, -25583.31, -24868.46, -27538.78, -27210.16, 0.000, 0.000, 0.000, 10:28:43.873, 1583738923873
33, -31752.55, -35524.74, -25542.03, -20305.60, -26680.18, -25047.16, -28072.61, -27873.85, 0.000, 0.000, 0.000, 10:28:43.874, 1583738923874
34, -32333.74, -35584.13, -25868.59, -20556.21, -27539.11, -25183.02, -28376.79, -28417.43, 0.000, 0.000, 0.000, 10:28:43.874, 1583738923874
35, -31806.04, -35499.08, -25675.87, -20387.03, -26927.28, -25074.77, -28010.13, -28057.83, -0.002, -0.018, 0.970, 10:28:43.874, 1583738923874
36, -30907.59, -35393.32, -25316.30, -20122.16, -25752.34, -24921.63, -27492.60, -27353.19, 0.000, 0.000, 0.000, 10:28:43.874, 1583738923874
37, -30885.84, -35400.96, -25170.75, -19997.99, -25576.65, -24858.27, -27533.24, -27200.48, 0.000, 0.000, 0.000, 10:28:43.874, 1583738923874
38, -31754.16, -35514.39, -25538.81, -20297.75, -26669.50, -25035.14, -28068.16, -27860.89, 0.000, 0.000, 0.000, 10:28:43.875, 1583738923875
39, -32338.03, -35580.24, -25871.16, -20547.31, -27533.06, -25170.88, -28375.83, -28409.09, 0.000, 0.000, 0.000, 10:28:43.875, 1583738923875
40, -31812.77, -35502.84, -25689.75, -20374.55, -26936.62, -25065.51, -28015.54, -28057.45, 0.000, 0.000, 0.000, 10:28:43.875, 1583738923875
41, -30907.28, -35392.67, -25331.81, -20115.21, -25764.05, -24915.87, -27499.26, -27354.20, 0.000, 0.000, 0.000, 10:28:43.875, 1583738923875
42, -30881.77, -35397.43, -25183.46, -20003.76, -25582.82, -24860.53, -27539.40, -27204.89, 0.000, 0.000, 0.000, 10:28:43.876, 1583738923876
43, -31745.87, -35517.08, -25543.93, -20301.33, -26675.11, -25037.69, -28071.58, -27865.52, 0.000, 0.000, 0.000, 10:28:43.876, 1583738923876
44, -32327.28, -35580.69, -25866.60, -20546.04, -27533.86, -25170.10, -28375.05, -28412.84, 0.000, 0.000, 0.000, 10:28:43.876, 1583738923876
45, -31808.34, -35501.86, -25682.80, -20386.22, -26942.88, -25071.86, -28015.72, -28068.69, -0.002, -0.014, 0.966, 10:28:43.876, 1583738923876
46, -30911.50, -35398.10, -25327.95, -20130.14, -25769.48, -24927.49, -27501.14, -27372.88, 0.000, 0.000, 0.000, 10:28:43.877, 1583738923877
47, -30879.31, -35411.89, -25177.56, -20009.33, -25580.39, -24869.31, -27539.20, -27217.23, 0.000, 0.000, 0.000, 10:28:43.877, 1583738923877
48, -31744.15, -35534.94, -25538.99, -20302.60, -26669.79, -25047.30, -28072.09, -27875.51, 0.000, 0.000, 0.000, 10:28:43.877, 1583738923877
49, -32329.54, -35591.17, -25870.11, -20556.43, -27538.09, -25184.67, -28380.14, -28424.27, 0.000, 0.000, 0.000, 10:28:43.877, 1583738923877
50, -31814.44, -35502.70, -25690.13, -20398.36, -26951.91, -25087.20, -28027.05, -28080.65, 0.000, 0.000, 0.000, 10:28:43.878, 1583738923878
51, -30913.96, -35395.13, -25331.19, -20134.65, -25774.00, -24937.55, -27509.07, -27377.85, 0.000, 0.000, 0.000, 10:28:43.878, 1583738923878
52, -30876.86, -35406.93, -25183.42, -20018.09, -25581.91, -24879.05, -27541.80, -27218.93, 0.000, 0.000, 0.000, 10:28:43.878, 1583738923878
53, -31736.44, -35521.68, -25545.34, -20314.09, -26670.53, -25053.67, -28072.11, -27871.48, 0.000, 0.000, 0.000, 10:28:43.878, 1583738923878
54, -32327.60, -35583.66, -25880.39, -20567.16, -27544.72, -25189.10, -28382.38, -28422.37, 0.000, 0.000, 0.000, 10:28:43.879, 1583738923879
55, -31814.85, -35500.74, -25702.09, -20398.98, -26961.39, -25085.56, -28028.24, -28079.02, 0.002, -0.022, 0.968, 10:28:43.879, 1583738923879
56, -30909.60, -35394.81, -25342.88, -20132.80, -25784.28, -24934.02, -27508.65, -27374.61, 0.000, 0.000, 0.000, 10:28:43.879, 1583738923879
57, -30868.65, -35403.53, -25187.22, -20014.96, -25585.46, -24875.37, -27541.17, -27214.70, 0.000, 0.000, 0.000, 10:28:43.879, 1583738923879
58, -31727.83, -35518.02, -25534.43, -20304.19, -26664.00, -25047.50, -28067.93, -27864.40, 0.000, 0.000, 0.000, 10:28:43.880, 1583738923880
59, -32327.48, -35575.50, -25870.85, -20557.14, -27539.92, -25182.84, -28378.96, -28415.91, 0.000, 0.000, 0.000, 10:28:43.880, 1583738923880
60, -31819.12, -35499.75, -25692.86, -20392.32, -26957.83, -25076.62, -28024.26, -28071.58, 0.000, 0.000, 0.000, 10:28:43.880, 1583738923880
61, -30912.57, -35396.91, -25331.68, -20124.41, -25777.51, -24920.50, -27501.96, -27362.60, 0.000, 0.000, 0.000, 10:28:43.881, 1583738923881
62, -30871.67, -35404.38, -25180.27, -20006.67, -25571.38, -24859.25, -27529.28, -27198.81, 0.000, 0.000, 0.000, 10:28:43.881, 1583738923881
63, -31732.75, -35515.89, -25534.10, -20296.86, -26647.50, -25030.89, -28057.50, -27847.95, 0.000, 0.000, 0.000, 10:28:43.881, 1583738923881
64, -32339.15, -35585.56, -25871.07, -20557.03, -27527.96, -25175.35, -28377.66, -28411.73, 0.000, 0.000, 0.000, 10:28:43.881, 1583738923881
65, -31829.31, -35510.50, -25686.00, -20384.23, -26947.13, -25068.40, -28020.19, -28071.06, 0.004, -0.022, 0.974, 10:28:43.881, 1583738923881
66, -30919.17, -35402.01, -25331.48, -20124.97, -25774.78, -24921.77, -27500.69, -27370.63, 0.000, 0.000, 0.000, 10:28:43.882, 1583738923882
67, -30873.61, -35414.68, -25181.56, -20008.41, -25571.69, -24865.24, -27532.50, -27208.91, 0.000, 0.000, 0.000, 10:28:43.882, 1583738923882
68, -31727.16, -35527.65, -25531.41, -20294.53, -26645.33, -25035.61, -28060.67, -27855.62, 0.000, 0.000, 0.000, 10:28:43.882, 1583738923882
69, -32327.24, -35586.41, -25874.69, -20556.76, -27532.47, -25179.26, -28381.26, -28418.50, 0.000, 0.000, 0.000, 10:28:43.882, 1583738923882
70, -31826.96, -35509.12, -25706.94, -20407.86, -26967.80, -25087.22, -28038.56, -28089.82, 0.000, 0.000, 0.000, 10:28:43.883, 1583738923883
71, -30918.21, -35401.86, -25346.21, -20145.45, -25791.59, -24936.79, -27518.62, -27384.06, 0.000, 0.000, 0.000, 10:28:43.883, 1583738923883
72, -30865.90, -35403.84, -25182.90, -20021.71, -25575.18, -24873.49, -27541.08, -27211.01, 0.000, 0.000, 0.000, 10:28:43.883, 1583738923883
73, -31718.46, -35510.82, -25528.22, -20293.88, -26642.09, -25035.41, -28064.71, -27849.96, 0.000, 0.000, 0.000, 10:28:43.884, 1583738923884
74, -32324.64, -35579.19, -25870.73, -20548.34, -27534.42, -25177.29, -28386.71, -28414.30, 0.000, 0.000, 0.000, 10:28:43.885, 1583738923885
75, -31822.58, -35506.57, -25695.03, -20396.05, -26971.85, -25082.66, -28039.46, -28085.95, 0.000, 0.000, 0.000, 10:28:43.886, 1583738923886
76, -30914.94, -35392.49, -25338.58, -20139.81, -25793.13, -24936.83, -27516.23, -27384.04, 0.004, -0.018, 0.972, 10:28:43.886, 1583738923886
77, -30859.91, -35390.72, -25186.17, -20014.20, -25571.13, -24872.48, -27536.21, -27207.64, 0.000, 0.000, 0.000, 10:28:43.886, 1583738923886
78, -31715.76, -35517.23, -25532.02, -20289.66, -26640.08, -25036.23, -28059.80, -27847.01, 0.000, 0.000, 0.000, 10:28:43.886, 1583738923886
79, -32321.58, -35584.87, -25869.57, -20549.48, -27531.60, -25176.54, -28377.75, -28410.12, 0.000, 0.000, 0.000, 10:28:43.887, 1583738923887
80, -31825.91, -35504.79, -25699.45, -20400.84, -26972.61, -25082.08, -28032.37, -28084.18, 0.000, 0.000, 0.000, 10:28:43.887, 1583738923887
81, -30917.00, -35398.70, -25337.69, -20136.78, -25792.39, -24929.93, -27509.68, -27378.12, 0.000, 0.000, 0.000, 10:28:43.887, 1583738923887
82, -30856.94, -35401.70, -25175.62, -20008.23, -25565.12, -24862.56, -27526.42, -27198.70, 0.000, 0.000, 0.000, 10:28:43.887, 1583738923887
83, -31713.99, -35512.96, -25518.25, -20290.53, -26631.03, -25030.58, -28052.40, -27839.61, 0.000, 0.000, 0.000, 10:28:43.887, 1583738923887
84, -32328.04, -35583.77, -25857.53, -20553.32, -27530.15, -25176.71, -28380.43, -28409.94, 0.000, 0.000, 0.000, 10:28:43.888, 1583738923888
85, -31839.50, -35510.93, -25693.15, -20400.37, -26976.99, -25083.15, -28038.85, -28086.78, 0.000, 0.000, 0.000, 10:28:43.888, 1583738923888
86, -30925.18, -35397.72, -25336.97, -20133.27, -25789.60, -24929.95, -27510.21, -27378.76, 0.004, -0.018, 0.976, 10:28:43.888, 1583738923888
87, -30862.19, -35406.73, -25182.46, -20008.21, -25564.67, -24868.21, -27530.44, -27202.23, 0.000, 0.000, 0.000, 10:28:43.888, 1583738923888
88, -31714.42, -35524.18, -25529.02, -20284.25, -26631.28, -25031.72, -28057.90, -27840.97, 0.000, 0.000, 0.000, 10:28:43.889, 1583738923889
89, -32329.05, -35584.13, -25868.30, -20543.71, -27528.47, -25173.70, -28383.34, -28410.50, 0.000, 0.000, 0.000, 10:28:43.889, 1583738923889
90, -31847.08, -35502.14, -25700.95, -20398.85, -26979.70, -25081.41, -28042.83, -28089.97, 0.000, 0.000, 0.000, 10:28:43.889, 1583738923889
91, -30933.16, -35399.51, -25347.55, -20144.93, -25796.64, -24934.42, -27516.81, -27384.08, 0.000, 0.000, 0.000, 10:28:43.889, 1583738923889
92, -30860.07, -35407.73, -25190.55, -20018.00, -25566.24, -24870.03, -27533.06, -27202.43, 0.000, 0.000, 0.000, 10:28:43.889, 1583738923889
93, -31706.69, -35516.03, -25530.99, -20288.52, -26630.70, -25033.37, -28059.57, -27838.45, 0.000, 0.000, 0.000, 10:28:43.889, 1583738923889
94, -32322.72, -35571.59, -25872.34, -20545.54, -27535.47, -25174.57, -28387.07, -28408.66, 0.000, 0.000, 0.000, 10:28:43.889, 1583738923889
95, -31844.26, -35502.13, -25704.17, -20399.07, -26991.14, -25082.10, -28047.24, -28091.54, 0.000, 0.000, 0.000, 10:28:43.889, 1583738923889
96, -30934.52, -35410.79, -25345.80, -20137.65, -25802.27, -24931.78, -27518.93, -27384.80, 0.004, -0.018, 0.972, 10:28:43.889, 1583738923889
97, -30860.87, -35409.57, -25188.04, -20012.39, -25562.82, -24868.30, -27530.06, -27200.48, 0.000, 0.000, 0.000, 10:28:43.890, 1583738923890
98, -31715.47, -35530.22, -25533.00, -20294.71, -26633.80, -25040.19, -28061.27, -27843.16, 0.000, 0.000, 0.000, 10:28:43.890, 1583738923890
99, -32334.44, -35592.78, -25865.91, -20548.94, -27535.65, -25177.67, -28385.26, -28410.88, 0.000, 0.000, 0.000, 10:28:43.890, 1583738923890
100, -31852.93, -35512.85, -25701.13, -20406.22, -26994.74, -25087.91, -28049.11, -28097.51, 0.000, 0.000, 0.000, 10:28:43.890, 1583738923890
101, -30931.97, -35393.11, -25348.80, -20147.53, -25810.59, -24939.27, -27520.72, -27391.84, 0.000, 0.000, 0.000, 10:28:43.890, 1583738923890
102, -30849.68, -35391.84, -25192.47, -20018.98, -25566.66, -24874.23, -27528.72, -27204.51, 0.000, 0.000, 0.000, 10:28:43.890, 1583738923890
103, -31697.92, -35513.43, -25519.63, -20283.02, -26622.25, -25031.31, -28050.79, -27834.45, 0.000, 0.000, 0.000, 10:28:43.890, 1583738923890
104, -32321.34, -35582.57, -25852.68, -20532.22, -27526.55, -25167.04, -28377.64, -28403.32, 0.000, 0.000, 0.000, 10:28:43.890, 1583738923890
105, -31841.56, -35504.27, -25692.90, -20388.28, -26987.85, -25074.54, -28038.12, -28089.64, 0.000, 0.000, 0.000, 10:28:44.340, 1583738924340
106, -30928.87, -35397.45, -25349.25, -20139.53, -25807.35, -24933.68, -27515.24, -27389.31, 0.000, -0.020, 0.960, 10:28:44.341, 1583738924341
107, -30852.47, -35404.80, -25194.84, -20019.72, -25560.58, -24872.30, -27524.43, -27201.00, 0.000, 0.000, 0.000, 10:28:44.341, 1583738924341
108, -31707.31, -35523.20, -25526.09, -20288.83, -26616.75, -25032.08, -28050.03, -27832.53, 0.000, 0.000, 0.000, 10:28:44.341, 1583738924341
109, -32337.61, -35595.24, -25862.42, -20541.95, -27529.73, -25170.57, -28382.89, -28407.30, 0.000, 0.000, 0.000, 10:28:44.341, 1583738924341
110, -31856.22, -35514.13, -25698.65, -20395.50, -26995.74, -25075.91, -28042.59, -28093.73, 0.000, 0.000, 0.000, 10:28:44.341, 1583738924341
111, -30934.63, -35404.22, -25343.97, -20140.73, -25808.64, -24930.73, -27510.24, -27387.35, 0.000, 0.000, 0.000, 10:28:44.342, 1583738924342
112, -30848.07, -35401.77, -25185.81, -20017.71, -25555.40, -24868.91, -27513.39, -27196.13, 0.000, 0.000, 0.000, 10:28:44.342, 1583738924342
113, -31693.70, -35509.81, -25523.34, -20279.36, -26611.32, -25026.46, -28040.75, -27825.39, 0.000, 0.000, 0.000, 10:28:44.342, 1583738924342
114, -32324.42, -35576.09, -25864.21, -20533.25, -27528.90, -25167.26, -28377.30, -28402.03, 0.000, 0.000, 0.000, 10:28:44.342, 1583738924342
115, -31853.00, -35503.35, -25701.40, -20391.65, -26997.46, -25077.40, -28047.39, -28097.06, 0.000, 0.000, 0.000, 10:28:44.342, 1583738924342
116, -30930.59, -35389.70, -25349.92, -20140.11, -25810.16, -24931.38, -27518.15, -27392.49, -0.002, -0.018, 0.966, 10:28:44.343, 1583738924343
117, -30849.12, -35399.66, -25194.08, -20014.91, -25556.45, -24869.40, -27525.03, -27198.32, 0.000, 0.000, 0.000, 10:28:44.343, 1583738924343
118, -31693.86, -35515.13, -25523.72, -20276.81, -26606.82, -25027.22, -28047.39, -27824.50, 0.000, 0.000, 0.000, 10:28:44.348, 1583738924348
119, -32323.26, -35581.05, -25866.94, -20537.72, -27524.92, -25170.07, -28385.06, -28405.20, 0.000, 0.000, 0.000, 10:28:44.348, 1583738924348
120, -31858.81, -35510.15, -25709.18, -20401.53, -27003.28, -25082.54, -28055.60, -28103.61, 0.000, 0.000, 0.000, 10:28:44.348, 1583738924348
121, -30943.33, -35404.71, -25352.71, -20144.31, -25814.92, -24934.60, -27524.90, -27398.07, 0.000, 0.000, 0.000, 10:28:44.348, 1583738924348
122, -30842.52, -35397.92, -25182.79, -20007.81, -25545.58, -24862.89, -27517.70, -27192.44, 0.000, 0.000, 0.000, 10:28:44.348, 1583738924348
123, -31684.29, -35509.81, -25508.66, -20269.72, -26591.96, -25017.97, -28036.48, -27814.44, 0.000, 0.000, 0.000, 10:28:44.349, 1583738924349
124, -32326.28, -35583.62, -25858.93, -20537.43, -27521.68, -25165.02, -28381.06, -28400.06, 0.000, 0.000, 0.000, 10:28:44.349, 1583738924349
125, -31863.04, -35504.34, -25702.43, -20397.60, -27006.88, -25076.91, -28055.30, -28100.72, 0.000, 0.000, 0.000, 10:28:44.349, 1583738924349
126, -30943.53, -35397.03, -25354.61, -20143.30, -25821.83, -24933.41, -27525.44, -27397.81, 0.000, -0.018, 0.966, 10:28:44.349, 1583738924349
127, -30844.24, -35400.51, -25190.04, -20018.56, -25551.57, -24870.25, -27522.73, -27197.49, 0.000, 0.000, 0.000, 10:28:44.349, 1583738924349
128, -31688.80, -35523.16, -25518.36, -20282.78, -26599.74, -25030.64, -28047.62, -27823.83, 0.000, 0.000, 0.000, 10:28:44.349, 1583738924349
129, -32328.58, -35591.40, -25864.90, -20542.62, -27532.59, -25176.67, -28391.27, -28410.09, 0.000, 0.000, 0.000, 10:28:44.349, 1583738924349
130, -31869.54, -35511.91, -25707.61, -20405.96, -27016.51, -25088.69, -28061.72, -28112.88, 0.000, 0.000, 0.000, 10:28:44.350, 1583738924350
131, -30949.03, -35401.74, -25351.84, -20150.01, -25825.72, -24939.65, -27526.13, -27405.14, 0.000, 0.000, 0.000, 10:28:44.350, 1583738924350
132, -30852.40, -35406.53, -25187.93, -20024.17, -25553.68, -24874.38, -27521.97, -27202.16, 0.000, 0.000, 0.000, 10:28:44.350, 1583738924350
133, -31700.52, -35533.82, -25510.98, -20287.47, -26594.75, -25033.06, -28045.89, -27826.91, 0.000, 0.000, 0.000, 10:28:44.350, 1583738924350
134, -32336.49, -35596.27, -25845.86, -20542.82, -27517.37, -25170.21, -28382.78, -28407.21, 0.000, 0.000, 0.000, 10:28:44.350, 1583738924350
135, -31877.61, -35519.16, -25696.03, -20403.14, -27010.16, -25081.49, -28058.14, -28110.58, 0.000, 0.000, 0.000, 10:28:44.350, 1583738924350
136, -30952.00, -35407.82, -25346.36, -20148.98, -25819.06, -24936.97, -27523.76, -27403.93, 0.004, -0.020, 0.970, 10:28:44.350, 1583738924350
137, -30842.75, -35407.98, -25174.46, -20018.56, -25536.26, -24869.49, -27513.01, -27196.98, 0.000, 0.000, 0.000, 10:28:44.351, 1583738924351
138, -31683.69, -35516.18, -25494.00, -20279.65, -26574.23, -25024.39, -28032.17, -27815.96, 0.000, 0.000, 0.000, 10:28:44.351, 1583738924351
139, -32330.39, -35590.73, -25842.91, -20544.87, -27510.41, -25172.36, -28380.84, -28406.63, 0.000, 0.000, 0.000, 10:28:44.351, 1583738924351
140, -31877.45, -35523.83, -25691.18, -20400.35, -27006.94, -25082.28, -28059.87, -28113.60, 0.000, 0.000, 0.000, 10:28:44.351, 1583738924351
141, -30954.42, -35409.27, -25338.74, -20142.10, -25813.49, -24932.30, -27523.04, -27403.77, 0.000, 0.000, 0.000, 10:28:44.351, 1583738924351
142, -30840.89, -35404.16, -25174.12, -20012.99, -25528.53, -24864.13, -27510.59, -27191.32, 0.000, 0.000, 0.000, 10:28:44.351, 1583738924351
143, -31679.62, -35520.16, -25493.48, -20264.52, -26566.84, -25013.88, -28029.44, -27802.57, 0.000, 0.000, 0.000, 10:28:44.351, 1583738924351
144, -32329.38, -35593.59, -25842.48, -20530.95, -27509.01, -25158.61, -28376.50, -28391.19, 0.000, 0.000, 0.000, 10:28:44.352, 1583738924352
145, -31880.89, -35519.18, -25696.26, -20398.25, -27010.76, -25073.34, -28059.39, -28102.29, 0.000, 0.000, 0.000, 10:28:44.352, 1583738924352
146, -30954.77, -35402.86, -25348.64, -20146.70, -25822.48, -24929.59, -27527.09, -27395.91, 0.002, -0.020, 0.976, 10:28:44.352, 1583738924352
147, -30840.64, -35404.52, -25178.72, -20018.94, -25531.77, -24862.76, -27514.37, -27184.41, 0.000, 0.000, 0.000, 10:28:44.352, 1583738924352
148, -31679.95, -35524.57, -25495.14, -20263.29, -26563.84, -25009.75, -28029.31, -27795.49, 0.000, 0.000, 0.000, 10:28:44.352, 1583738924352
149, -32329.16, -35592.16, -25845.81, -20524.64, -27506.30, -25154.05, -28377.57, -28386.24, 0.000, 0.000, 0.000, 10:28:44.353, 1583738924353
150, -31879.87, -35517.39, -25693.42, -20389.53, -27007.30, -25068.17, -28058.97, -28099.81, 0.000, 0.000, 0.000, 10:28:44.353, 1583738924353
151, -30954.35, -35402.43, -25345.85, -20135.41, -25815.10, -24921.39, -27523.09, -27392.49, 0.000, 0.000, 0.000, 10:28:44.353, 1583738924353
152, -30837.94, -35402.50, -25181.50, -20005.35, -25522.07, -24853.42, -27507.53, -27177.80, 0.000, 0.000, 0.000, 10:28:44.353, 1583738924353
153, -31676.67, -35521.14, -25496.28, -20259.78, -26555.73, -25005.37, -28023.88, -27791.24, 0.000, 0.000, 0.000, 10:28:44.353, 1583738924353
154, -32332.31, -35593.97, -25848.03, -20533.76, -27505.77, -25158.12, -28377.28, -28391.90, 0.000, 0.000, 0.000, 10:28:44.354, 1583738924354
155, -31893.46, -35525.39, -25704.95, -20409.29, -27018.54, -25080.96, -28064.54, -28116.41, 0.000, 0.000, 0.000, 10:28:44.354, 1583738924354
156, -30962.66, -35409.01, -25348.26, -20146.39, -25822.28, -24930.31, -27522.39, -27407.08, 0.002, -0.018, 0.970, 10:28:44.354, 1583738924354
157, -30836.38, -35397.12, -25172.73, -20003.07, -25519.54, -24855.23, -27501.41, -27183.68, 0.000, 0.000, 0.000, 10:28:44.354, 1583738924354
158, -31668.26, -35511.71, -25485.84, -20253.94, -26546.74, -25006.13, -28017.22, -27791.80, 0.000, 0.000, 0.000, 10:28:44.354, 1583738924354
159, -32319.64, -35585.27, -25832.51, -20526.08, -27494.46, -25156.35, -28365.77, -28390.11, 0.000, 0.000, 0.000, 10:28:44.354, 1583738924354
160, -31884.09, -35519.29, -25695.65, -20407.16, -27016.75, -25082.54, -28056.69, -28118.45, 0.000, 0.000, 0.000, 10:28:44.354, 1583738924354
161, -30954.75, -35402.48, -25345.20, -20149.43, -25823.17, -24932.41, -27517.21, -27408.13, 0.000, 0.000, 0.000, 10:28:44.355, 1583738924355
162, -30823.61, -35392.29, -25164.06, -20000.03, -25509.42, -24852.79, -27489.20, -27177.73, 0.000, 0.000, 0.000, 10:28:44.355, 1583738924355
163, -31659.48, -35510.95, -25485.10, -20254.52, -26540.42, -25008.83, -28010.80, -27791.17, 0.000, 0.000, 0.000, 10:28:44.355, 1583738924355
164, -32316.13, -35584.85, -25839.60, -20522.30, -27497.79, -25157.20, -28365.86, -28390.47, 0.000, 0.000, 0.000, 10:28:44.355, 1583738924355
165, -31878.95, -35512.36, -25695.41, -20393.53, -27018.92, -25074.10, -28053.58, -28113.93, 0.000, 0.000, 0.000, 10:28:44.355, 1583738924355
166, -30956.99, -35398.61, -25345.80, -20138.59, -25822.39, -24928.27, -27516.94, -27405.96, 0.000, 0.000, 0.000, 10:28:44.355, 1583738924355
167, -30821.69, -35392.89, -25170.50, -20003.83, -25511.43, -24854.89, -27491.39, -27177.20, 0.006, -0.020, 0.976, 10:28:44.355, 1583738924355
168, -31646.02, -35501.81, -25483.76, -20257.29, -26533.76, -25005.61, -28007.32, -27783.20, 0.000, 0.000, 0.000, 10:28:44.356, 1583738924356
169, -32310.79, -35576.13, -25845.59, -20532.94, -27501.67, -25159.70, -28370.42, -28388.75, 0.000, 0.000, 0.000, 10:28:44.356, 1583738924356
170, -31880.52, -35500.11, -25705.00, -20403.59, -27028.11, -25074.30, -28059.96, -28112.84, 0.000, 0.000, 0.000, 10:28:44.356, 1583738924356
171, -30953.16, -35383.14, -25352.80, -20146.79, -25831.04, -24925.68, -27518.01, -27400.69, 0.000, 0.000, 0.000, 10:28:44.356, 1583738924356
172, -30817.02, -35383.30, -25176.60, -20000.05, -25512.46, -24847.20, -27488.80, -27165.62, 0.000, 0.000, 0.000, 10:28:44.356, 1583738924356
173, -31648.71, -35502.70, -25494.42, -20255.31, -26542.00, -25004.38, -28013.37, -27776.56, 0.000, 0.000, 0.000, 10:28:44.356, 1583738924356
174, -32306.99, -35576.73, -25838.82, -20525.32, -27496.67, -25151.68, -28366.38, -28377.42, 0.000, 0.000, 0.000, 10:28:44.356, 1583738924356
175, -31878.68, -35506.84, -25700.53, -20396.99, -27027.77, -25069.76, -28057.41, -28107.25, 0.000, 0.000, 0.000, 10:28:44.357, 1583738924357
176, -30952.94, -35398.39, -25349.52, -20134.54, -25831.96, -24919.45, -27515.60, -27395.10, 0.000, 0.000, 0.000, 10:28:44.357, 1583738924357
177, -30814.63, -35392.22, -25171.71, -19997.03, -25508.10, -24846.49, -27483.39, -27162.89, 0.002, -0.022, 0.978, 10:28:44.357, 1583738924357
178, -31641.40, -35500.22, -25476.25, -20245.14, -26522.40, -24997.30, -27997.10, -27768.22, 0.000, 0.000, 0.000, 10:28:44.357, 1583738924357
179, -32309.11, -35576.84, -25830.48, -20512.60, -27488.98, -25147.46, -28357.97, -28376.41, 0.000, 0.000, 0.000, 10:28:44.357, 1583738924357
180, -31888.99, -35509.19, -25702.43, -20390.18, -27033.03, -25072.78, -28057.38, -28114.49, 0.000, 0.000, 0.000, 10:28:44.358, 1583738924358
181, -30957.52, -35393.14, -25354.72, -20140.08, -25834.68, -24929.15, -27517.70, -27407.31, 0.000, 0.000, 0.000, 10:28:44.358, 1583738924358
182, -30815.86, -35391.53, -25168.15, -20002.64, -25501.71, -24855.59, -27485.09, -27173.53, 0.000, 0.000, 0.000, 10:28:44.358, 1583738924358
183, -31642.54, -35506.44, -25471.00, -20249.43, -26518.82, -25003.09, -27997.12, -27773.92, 0.000, 0.000, 0.000, 10:28:44.358, 1583738924358
184, -32312.04, -35581.50, -25828.11, -20520.29, -27487.24, -25152.71, -28359.42, -28380.95, 0.000, 0.000, 0.000, 10:28:44.358, 1583738924358
185, -31897.32, -35511.33, -25694.29, -20397.73, -27027.30, -25073.16, -28057.85, -28117.24, 0.000, 0.000, 0.000, 10:28:44.361, 1583738924361
186, -30965.59, -35384.31, -25343.61, -20144.15, -25830.81, -24923.29, -27511.46, -27407.19, 0.000, 0.000, 0.000, 10:28:44.361, 1583738924361
187, -30812.01, -35378.27, -25161.49, -19998.69, -25497.26, -24844.21, -27475.79, -27166.35, 0.002, -0.016, 0.976, 10:28:44.361, 1583738924361
188, -31634.80, -35504.74, -25470.75, -20241.43, -26513.10, -24994.17, -27993.64, -27766.10, 0.000, 0.000, 0.000, 10:28:44.362, 1583738924362
189, -32305.51, -35576.55, -25832.58, -20515.97, -27486.56, -25146.74, -28358.64, -28377.13, 0.000, 0.000, 0.000, 10:28:44.362, 1583738924362
190, -31889.59, -35499.38, -25701.24, -20399.03, -27034.93, -25068.62, -28060.16, -28117.87, 0.000, 0.000, 0.000, 10:28:44.362, 1583738924362
191, -30960.43, -35385.14, -25352.11, -20145.38, -25837.54, -24920.00, -27518.53, -27407.31, 0.000, 0.000, 0.000, 10:28:44.362, 1583738924362
192, -30809.15, -35388.02, -25177.14, -20005.01, -25504.44, -24846.22, -27484.35, -27168.63, 0.000, 0.000, 0.000, 10:28:44.363, 1583738924363
193, -31628.10, -35503.38, -25478.80, -20241.90, -26510.17, -24989.21, -27994.69, -27762.25, 0.000, 0.000, 0.000, 10:28:44.363, 1583738924363
194, -32302.92, -35576.73, -25833.03, -20511.50, -27482.72, -25138.94, -28359.22, -28369.82, 0.000, 0.000, 0.000, 10:28:44.363, 1583738924363
195, -31887.15, -35498.28, -25699.16, -20391.29, -27029.16, -25057.82, -28055.82, -28107.65, 0.000, 0.000, 0.000, 10:28:44.363, 1583738924363
196, -30956.88, -35385.36, -25349.92, -20137.60, -25831.06, -24911.69, -27510.97, -27400.24, 0.000, 0.000, 0.000, 10:28:44.364, 1583738924364
197, -30803.52, -35376.75, -25170.05, -19994.57, -25490.40, -24837.57, -27472.75, -27158.24, 0.004, -0.022, 0.974, 10:28:44.364, 1583738924364
198, -31626.73, -35483.93, -25473.03, -20226.38, -26500.54, -24980.46, -27985.32, -27752.04, 0.000, 0.000, 0.000, 10:28:44.364, 1583738924364
199, -32303.48, -35558.07, -25822.32, -20496.37, -27475.17, -25130.42, -28350.73, -28362.98, 0.000, 0.000, 0.000, 10:28:44.364, 1583738924364
200, -31894.51, -35496.49, -25695.05, -20386.44, -27033.61, -25060.33, -28057.03, -28113.40, 0.000, 0.000, 0.000, 10:28:44.364, 1583738924364
201, -30964.36, -35392.06, -25352.62, -20142.77, -25842.04, -24923.22, -27518.37, -27411.87, 0.000, 0.000, 0.000, 10:28:44.364, 1583738924364
202, -30807.16, -35384.22, -25173.56, -20002.17, -25502.47, -24850.18, -27479.39, -27170.71, 0.000, 0.000, 0.000, 10:28:44.365, 1583738924365
203, -31620.36, -35492.80, -25466.15, -20230.43, -26498.44, -24985.40, -27984.09, -27755.23, 0.000, 0.000, 0.000, 10:28:44.365, 1583738924365
204, -32303.34, -35569.29, -25823.33, -20508.57, -27480.64, -25138.47, -28354.06, -28369.01, 0.000, 0.000, 0.000, 10:28:44.365, 1583738924365
205, -31901.53, -35501.77, -25692.48, -20392.43, -27037.85, -25062.18, -28057.07, -28116.15, 0.000, 0.000, 0.000, 10:28:44.365, 1583738924365
206, -30971.78, -35393.05, -25343.66, -20136.06, -25837.59, -24913.83, -27510.44, -27405.29, 0.000, 0.000, 0.000, 10:28:44.365, 1583738924365
207, -30806.58, -35387.06, -25156.13, -19988.92, -25483.42, -24836.12, -27464.10, -27155.36, 0.002, -0.018, 0.972, 10:28:44.365, 1583738924365
208, -31623.34, -35499.15, -25456.49, -20233.49, -26487.42, -24984.20, -27976.69, -27749.18, 0.000, 0.000, 0.000, 10:28:44.365, 1583738924365
209, -32310.03, -35575.17, -25821.65, -20514.90, -27477.29, -25144.08, -28353.84, -28372.83, 0.000, 0.000, 0.000, 10:28:44.366, 1583738924366
210, -31913.93, -35503.11, -25696.41, -20396.79, -27044.98, -25069.98, -28064.89, -28127.61, 0.000, 0.000, 0.000, 10:28:44.366, 1583738924366
211, -30976.92, -35397.14, -25349.29, -20145.69, -25845.75, -24924.16, -27519.76, -27417.81, 0.000, 0.000, 0.000, 10:28:44.366, 1583738924366
212, -30800.12, -35384.64, -25164.69, -19998.62, -25486.11, -24843.76, -27470.65, -27162.67, 0.000, 0.000, 0.000, 10:28:44.366, 1583738924366
213, -31609.72, -35492.25, -25460.60, -20227.26, -26483.20, -24982.79, -27978.95, -27748.01, 0.000, 0.000, 0.000, 10:28:44.367, 1583738924367
214, -32297.73, -35568.93, -25820.33, -20497.87, -27469.58, -25133.91, -28351.33, -28364.94, 0.000, 0.000, 0.000, 10:28:44.367, 1583738924367
215, -31907.23, -35502.10, -25694.09, -20384.21, -27041.41, -25059.61, -28062.35, -28120.48, 0.000, 0.000, 0.000, 10:28:44.367, 1583738924367
216, -30981.21, -35397.81, -25356.31, -20142.95, -25849.17, -24922.46, -27522.86, -27417.97, 0.000, 0.000, 0.000, 10:28:44.367, 1583738924367
217, -30809.51, -35393.88, -25185.21, -20015.18, -25497.24, -24858.76, -27482.25, -27172.52, 0.002, -0.012, 0.964, 10:28:44.367, 1583738924367
218, -31621.73, -35498.97, -25476.03, -20246.81, -26490.88, -24999.73, -27986.98, -27757.38, 0.000, 0.000, 0.000, 10:28:44.368, 1583738924368
219, -32310.03, -35576.20, -25825.36, -20510.88, -27475.59, -25145.51, -28354.21, -28371.38, 0.000, 0.000, 0.000, 10:28:44.368, 1583738924368
220, -31915.59, -35509.48, -25691.90, -20387.83, -27048.22, -25064.66, -28060.54, -28124.69, 0.000, 0.000, 0.000, 10:28:44.368, 1583738924368
221, -30976.07, -35393.79, -25339.86, -20126.67, -25844.49, -24910.59, -27509.70, -27409.32, 0.000, 0.000, 0.000, 10:28:44.368, 1583738924368
222, -30801.04, -35390.95, -25162.41, -19996.14, -25482.91, -24842.49, -27462.85, -27158.17, 0.000, 0.000, 0.000, 10:28:44.369, 1583738924369
223, -31612.85, -35499.00, -25460.69, -20235.79, -26479.82, -24988.67, -27973.23, -27745.64, 0.000, 0.000, 0.000, 10:28:44.369, 1583738924369
224, -32302.99, -35569.02, -25818.66, -20507.63, -27472.89, -25138.71, -28347.42, -28363.67, 0.000, 0.000, 0.000, 10:28:44.369, 1583738924369
225, -31910.65, -35495.75, -25696.99, -20393.15, -27048.90, -25062.61, -28058.52, -28121.31, 0.000, 0.000, 0.000, 10:28:44.817, 1583738924817
226, -30975.65, -35389.52, -25355.97, -20141.89, -25851.58, -24918.46, -27515.82, -27415.29, 0.000, 0.000, 0.000, 10:28:44.818, 1583738924818
227, -30795.81, -35387.44, -25168.29, -20000.50, -25484.38, -24844.46, -27465.64, -27159.54, 0.004, -0.016, 0.966, 10:28:44.818, 1583738924818
228, -31603.00, -35491.08, -25454.48, -20224.91, -26471.66, -24979.13, -27969.43, -27736.30, 0.000, 0.000, 0.000, 10:28:44.818, 1583738924818
229, -32303.77, -35571.82, -25820.78, -20501.09, -27472.93, -25133.28, -28349.92, -28361.10, 0.000, 0.000, 0.000, 10:28:44.818, 1583738924818
230, -31923.72, -35510.24, -25705.60, -20395.05, -27063.11, -25064.82, -28069.21, -28128.35, 0.000, 0.000, 0.000, 10:28:44.818, 1583738924818
231, -30984.01, -35391.01, -25349.69, -20139.90, -25857.01, -24915.73, -27516.49, -27415.62, 0.000, 0.000, 0.000, 10:28:44.819, 1583738924819
232, -30799.52, -35379.32, -25156.42, -19992.32, -25479.74, -24837.73, -27458.78, -27152.70, 0.000, 0.000, 0.000, 10:28:44.819, 1583738924819
233, -31616.25, -35502.37, -25450.30, -20229.87, -26474.17, -24984.35, -27972.22, -27738.54, 0.000, 0.000, 0.000, 10:28:44.822, 1583738924822
234, -32313.27, -35580.76, -25808.57, -20505.96, -27471.01, -25137.80, -28348.87, -28362.82, 0.000, 0.000, 0.000, 10:28:44.823, 1583738924823
235, -31931.95, -35515.45, -25696.39, -20401.80, -27063.54, -25070.48, -28069.23, -28132.49, 0.000, 0.000, 0.000, 10:28:44.823, 1583738924823
236, -30997.38, -35406.77, -25355.91, -20155.82, -25865.57, -24928.99, -27526.04, -27427.96, 0.000, 0.000, 0.000, 10:28:44.823, 1583738924823
237, -30807.68, -35394.14, -25163.68, -20004.79, -25483.09, -24847.03, -27466.96, -27161.64, 0.008, -0.022, 0.970, 10:28:44.823, 1583738924823
238, -31615.36, -35504.05, -25453.79, -20233.89, -26470.81, -24986.54, -27974.01, -27739.61, 0.000, 0.000, 0.000, 10:28:44.823, 1583738924823
239, -32318.19, -35585.74, -25819.59, -20509.83, -27477.33, -25141.82, -28357.30, -28366.84, 0.000, 0.000, 0.000, 10:28:44.824, 1583738924824
240, -31935.41, -35515.40, -25694.38, -20384.30, -27062.24, -25059.39, -28069.48, -28126.58, 0.000, 0.000, 0.000, 10:28:44.824, 1583738924824
241, -30997.38, -35401.12, -25343.57, -20130.99, -25858.82, -24913.01, -27518.42, -27418.26, 0.000, 0.000, 0.000, 10:28:44.824, 1583738924824
242, -30803.65, -35389.34, -25162.39, -19996.90, -25480.70, -24844.12, -27463.45, -27158.91, 0.000, 0.000, 0.000, 10:28:44.824, 1583738924824
243, -31610.37, -35503.27, -25455.64, -20232.40, -26470.75, -24989.32, -27976.85, -27740.88, 0.000, 0.000, 0.000, 10:28:44.824, 1583738924824
244, -32314.01, -35578.52, -25822.28, -20518.07, -27483.90, -25150.90, -28364.45, -28374.13, 0.000, 0.000, 0.000, 10:28:44.824, 1583738924824
245, -31934.63, -35502.77, -25708.39, -20410.36, -27082.07, -25081.14, -28085.53, -28145.49, 0.000, 0.000, 0.000, 10:28:44.824, 1583738924824
246, -30996.82, -35395.91, -25361.76, -20155.13, -25878.20, -24932.05, -27534.71, -27434.80, 0.000, 0.000, 0.000, 10:28:44.824, 1583738924824
247, -30799.59, -35390.68, -25172.29, -20003.85, -25489.77, -24851.00, -27473.00, -27164.43, 0.002, -0.024, 0.970, 10:28:44.825, 1583738924825
248, -31607.69, -35503.64, -25448.53, -20222.76, -26463.79, -24983.75, -27973.36, -27735.85, 0.000, 0.000, 0.000, 10:28:44.825, 1583738924825
249, -32316.35, -35583.80, -25812.38, -20505.51, -27472.86, -25141.82, -28356.27, -28368.21, 0.000, 0.000, 0.000, 10:28:44.825, 1583738924825
250, -31941.45, -35515.11, -25698.65, -20398.76, -27078.06, -25071.21, -28078.95, -28143.01, 0.000, 0.000, 0.000, 10:28:44.825, 1583738924825
251, -30999.21, -35394.10, -25348.80, -20144.58, -25873.24, -24922.69, -27524.52, -27430.42, 0.000, 0.000, 0.000, 10:28:44.825, 1583738924825
252, -30799.67, -35385.52, -25162.03, -20001.39, -25479.04, -24846.00, -27461.89, -27159.18, 0.000, 0.000, 0.000, 10:28:44.825, 1583738924825
253, -31608.03, -35510.46, -25454.75, -20240.09, -26461.25, -24994.44, -27973.03, -27739.34, 0.000, 0.000, 0.000, 10:28:44.825, 1583738924825
254, -32317.56, -35591.15, -25822.77, -20520.60, -27473.78, -25152.39, -28357.93, -28371.67, 0.000, 0.000, 0.000, 10:28:44.825, 1583738924825
255, -31951.42, -35525.91, -25708.46, -20408.15, -27085.66, -25077.40, -28083.22, -28149.21, 0.000, 0.000, 0.000, 10:28:44.825, 1583738924825
0, -31010.12, -35409.39, -25361.21, -20157.67, -25888.95, -24930.42, -27535.87, -27441.93, 0.000, 0.000, 0.000, 10:28:44.825, 1583738924825
1, -30802.69, -35399.39, -25161.22, -20005.88, -25489.50, -24849.24, -27469.00, -27163.98, 0.000, 0.000, 0.000, 10:28:44.826, 1583738924826
2, -31603.38, -35511.47, -25449.31, -20237.43, -26462.16, -24993.70, -27973.30, -27736.59, 0.002, -0.022, 0.976, 10:28:44.826, 1583738924826
3, -32312.75, -35583.37, -25823.80, -20520.53, -27478.34, -25154.12, -28360.92, -28372.95, 0.000, 0.000, 0.000, 10:28:44.826, 1583738924826
4, -31949.00, -35521.79, -25708.80, -20406.14, -27092.46, -25078.34, -28089.19, -28151.17, 0.000, 0.000, 0.000, 10:28:44.826, 1583738924826
5, -31008.19, -35407.73, -25359.48, -20151.59, -25890.90, -24928.38, -27538.55, -27439.56, 0.000, 0.000, 0.000, 10:28:44.826, 1583738924826
6, -30797.89, -35389.38, -25163.84, -20002.82, -25487.94, -24846.69, -27469.13, -27160.36, 0.000, 0.000, 0.000, 10:28:44.827, 1583738924827
7, -31594.68, -35502.75, -25444.46, -20227.32, -26453.45, -24985.09, -27968.65, -27727.85, 0.000, 0.000, 0.000, 10:28:44.827, 1583738924827
8, -32307.12, -35587.04, -25822.59, -20513.63, -27472.13, -25147.86, -28360.21, -28367.47, 0.000, 0.000, 0.000, 10:28:44.827, 1583738924827
9, -31946.05, -35515.56, -25709.62, -20402.94, -27091.95, -25076.71, -28091.36, -28149.90, 0.000, 0.000, 0.000, 10:28:44.827, 1583738924827
10, -31006.83, -35400.63, -25358.01, -20147.66, -25895.14, -24928.03, -27539.00, -27440.97, 0.000, 0.000, 0.000, 10:28:44.827, 1583738924827
11, -30794.76, -35394.34, -25163.95, -19999.58, -25490.80, -24848.57, -27468.84, -27163.96, 0.000, 0.000, 0.000, 10:28:44.827, 1583738924827
12, -31588.02, -35507.78, -25445.25, -20222.52, -26447.46, -24984.55, -27963.84, -27726.18, 0.004, -0.018, 0.970, 10:28:44.827, 1583738924827
13, -32304.62, -35588.58, -25823.66, -20520.33, -27467.81, -25153.29, -28354.28, -28369.62, 0.000, 0.000, 0.000, 10:28:44.828, 1583738924828
14, -31953.52, -35520.47, -25711.48, -20410.07, -27092.21, -25081.45, -28087.92, -28157.12, 0.000, 0.000, 0.000, 10:28:44.828, 1583738924828
15, -31014.25, -35397.83, -25361.36, -20156.58, -25893.76, -24935.25, -27537.35, -27449.42, 0.000, 0.000, 0.000, 10:28:44.828, 1583738924828
16, -30802.60, -35396.58, -25162.39, -20006.69, -25486.69, -24855.94, -27466.43, -27168.79, 0.000, 0.000, 0.000, 10:28:44.828, 1583738924828
17, -31594.46, -35516.90, -25448.89, -20235.46, -26446.74, -24995.89, -27964.47, -27732.84, 0.000, 0.000, 0.000, 10:28:44.828, 1583738924828
18, -32307.46, -35594.73, -25834.35, -20529.56, -27471.10, -25160.66, -28357.37, -28374.80, 0.000, 0.000, 0.000, 10:28:44.828, 1583738924828
19, -31957.49, -35526.29, -25722.92, -20419.50, -27104.30, -25089.07, -28094.94, -28165.68, 0.000, 0.000, 0.000, 10:28:44.828, 1583738924828
20, -31020.13, -35411.53, -25367.69, -20162.79, -25904.04, -24939.56, -27544.81, -27455.25, 0.000, 0.000, 0.000, 10:28:44.828, 1583738924828
21, -30800.61, -35399.69, -25164.62, -20002.29, -25487.09, -24852.19, -27467.79, -27166.73, 0.000, 0.000, 0.000, 10:28:44.829, 1583738924829
22, -31589.16, -35511.55, -25437.65, -20218.34, -26431.99, -24981.58, -27958.25, -27721.41, 0.004, -0.016, 0.970, 10:28:44.829, 1583738924829
23, -32312.60, -35592.85, -25818.79, -20515.79, -27460.55, -25149.40, -28354.33, -28366.06, 0.000, 0.000, 0.000, 10:28:44.829, 1583738924829
24, -31966.17, -35525.50, -25715.32, -20412.42, -27102.85, -25081.92, -28096.95, -28162.08, 0.000, 0.000, 0.000, 10:28:44.829, 1583738924829
25, -31023.71, -35415.40, -25364.96, -20151.19, -25906.65, -24930.82, -27548.88, -27454.07, 0.000, 0.000, 0.000, 10:28:44.829, 1583738924829
26, -30804.75, -35409.34, -25161.20, -19991.56, -25484.65, -24845.57, -27472.33, -27163.65, 0.000, 0.000, 0.000, 10:28:44.830, 1583738924830
27, -31591.04, -35520.88, -25442.92, -20218.98, -26434.58, -24985.96, -27964.63, -27722.09, 0.000, 0.000, 0.000, 10:28:44.830, 1583738924830
28, -32308.69, -35597.05, -25824.00, -20517.58, -27459.92, -25152.51, -28356.43, -28367.51, 0.000, 0.000, 0.000, 10:28:44.830, 1583738924830
29, -31964.20, -35526.80, -25716.08, -20412.04, -27102.32, -25081.70, -28097.30, -28163.22, 0.000, 0.000, 0.000, 10:28:44.830, 1583738924830
30, -31023.84, -35415.60, -25368.80, -20156.22, -25909.61, -24935.94, -27548.05, -27456.72, 0.000, 0.000, 0.000, 10:28:44.830, 1583738924830
31, -30795.54, -35402.84, -25163.19, -20004.25, -25484.70, -24855.88, -27469.53, -27168.12, 0.000, 0.000, 0.000, 10:28:44.831, 1583738924831
32, -31581.65, -35513.19, -25444.58, -20233.67, -26433.82, -24999.78, -27966.14, -27729.64, 0.004, -0.022, 0.968, 10:28:44.831, 1583738924831
33, -32305.60, -35594.84, -25831.44, -20528.89, -27464.62, -25167.21, -28362.51, -28377.64, 0.000, 0.000, 0.000, 10:28:44.831, 1583738924831
34, -31965.94, -35533.10, -25729.47, -20423.79, -27112.71, -25097.46, -28105.28, -28177.32, 0.000, 0.000, 0.000, 10:28:44.831, 1583738924831
35, -31020.91, -35414.86, -25378.77, -20167.73, -25917.65, -24946.58, -27553.84, -27466.78, 0.000, 0.000, 0.000, 10:28:44.831, 1583738924831
36, -30791.20, -35394.41, -25164.87, -20003.78, -25481.86, -24856.08, -27469.82, -27167.81, 0.000, 0.000, 0.000, 10:28:44.831, 1583738924831
37, -31572.42, -35500.87, -25431.75, -20216.62, -26416.72, -24985.43, -27959.51, -27715.13, 0.000, 0.000, 0.000, 10:28:44.832, 1583738924832
38, -32296.24, -35582.81, -25814.83, -20515.93, -27448.43, -25152.13, -28355.02, -28363.40, 0.000, 0.000, 0.000, 10:28:44.832, 1583738924832
39, -31963.82, -35519.87, -25715.50, -20415.68, -27108.17, -25083.84, -28100.37, -28168.47, 0.000, 0.000, 0.000, 10:28:44.832, 1583738924832
40, -31030.54, -35416.54, -25371.15, -20162.73, -25918.26, -24939.52, -27556.35, -27465.96, 0.000, 0.000, 0.000, 10:28:44.832, 1583738924832
41, -30791.79, -35402.48, -25155.81, -19989.30, -25477.32, -24845.73, -27466.85, -27161.53, 0.000, 0.000, 0.000, 10:28:44.832, 1583738924832
42, -31566.45, -35502.53, -25432.11, -20201.77, -26408.79, -24976.69, -27951.95, -27707.60, 0.004, -0.020, 0.972, 10:28:44.832, 1583738924832
43, -32294.45, -35583.46, -25828.15, -20512.84, -27450.53, -25153.89, -28354.95, -28365.97, 0.000, 0.000, 0.000, 10:28:44.832, 1583738924832
44, -31963.57, -35525.68, -25739.62, -20424.89, -27125.34, -25097.63, -28116.82, -28183.36, 0.000, 0.000, 0.000, 10:28:44.833, 1583738924833
45, -31021.63, -35412.98, -25380.70, -20160.98, -25921.63, -24943.90, -27562.25, -27469.49, 0.000, 0.000, 0.000, 10:28:44.833, 1583738924833
46, -30787.89, -35399.98, -25157.13, -19992.14, -25472.88, -24849.42, -27467.03, -27160.32, 0.000, 0.000, 0.000, 10:28:44.833, 1583738924833
47, -31563.66, -35504.16, -25431.26, -20213.82, -26410.46, -24985.07, -27954.48, -27706.91, 0.000, 0.000, 0.000, 10:28:44.833, 1583738924833
48, -32291.65, -35586.03, -25827.84, -20520.96, -27455.92, -25159.95, -28359.04, -28364.12, 0.000, 0.000, 0.000, 10:28:44.833, 1583738924833
49, -31961.92, -35518.51, -25724.89, -20415.48, -27119.64, -25087.75, -28104.90, -28170.53, 0.000, 0.000, 0.000, 10:28:44.833, 1583738924833
50, -31024.20, -35405.32, -25369.65, -20154.81, -25919.08, -24934.94, -27552.26, -27460.93, 0.000, 0.000, 0.000, 10:28:44.833, 1583738924833
51, -30784.14, -35390.16, -25157.96, -19991.71, -25473.37, -24847.12, -27461.98, -27157.86, 0.000, 0.000, 0.000, 10:28:44.834, 1583738924834
52, -31556.73, -35495.48, -25427.59, -20210.00, -26403.87, -24980.64, -27947.48, -27703.69, 0.002, -0.020, 0.974, 10:28:44.834, 1583738924834
53, -32289.04, -35572.84, -25817.38, -20513.36, -27446.40, -25150.92, -28348.67, -28360.94, 0.000, 0.000, 0.000, 10:28:44.834, 1583738924834
54, -31973.19, -35524.88, -25717.51, -20416.48, -27119.30, -25087.96, -28102.94, -28177.81, 0.000, 0.000, 0.000, 10:28:44.834, 1583738924834
55, -31029.16, -35411.75, -25359.48, -20149.96, -25916.40, -24930.58, -27543.99, -27461.33, 0.000, 0.000, 0.000, 10:28:44.834, 1583738924834
56, -30784.32, -35400.16, -25144.79, -19982.82, -25461.14, -24838.26, -27450.60, -27152.94, 0.000, 0.000, 0.000, 10:28:44.834, 1583738924834
57, -31557.69, -35510.06, -25418.67, -20203.90, -26388.78, -24973.94, -27938.83, -27697.88, 0.000, 0.000, 0.000, 10:28:44.834, 1583738924834
58, -32290.56, -35592.54, -25815.26, -20515.01, -27436.74, -25151.05, -28343.66, -28358.57, 0.000, 0.000, 0.000, 10:28:44.835, 1583738924835
59, -31973.28, -35532.70, -25725.20, -20420.42, -27116.98, -25088.47, -28104.01, -28178.15, 0.000, 0.000, 0.000, 10:28:44.835, 1583738924835
60, -31033.61, -35418.62, -25372.98, -20162.59, -25920.67, -24936.14, -27551.34, -27468.15, 0.000, 0.000, 0.000, 10:28:44.835, 1583738924835
61, -30783.76, -35400.51, -25157.49, -19994.78, -25466.17, -24844.92, -27457.80, -27157.62, 0.000, 0.000, 0.000, 10:28:44.835, 1583738924835
62, -31552.37, -35503.44, -25425.47, -20203.65, -26391.42, -24975.84, -27942.16, -27695.29, 0.002, -0.022, 0.972, 10:28:44.835, 1583738924835
63, -32292.41, -35591.33, -25819.64, -20515.06, -27447.03, -25153.27, -28350.82, -28358.53, 0.000, 0.000, 0.000, 10:28:44.836, 1583738924836
64, -31980.00, -35532.37, -25725.61, -20418.90, -27129.23, -25089.03, -28112.44, -28179.98, 0.000, 0.000, 0.000, 10:28:44.836, 1583738924836
65, -31036.54, -35408.22, -25378.44, -20161.76, -25930.57, -24936.68, -27558.74, -27470.49, 0.000, 0.000, 0.000, 10:28:44.836, 1583738924836
66, -30781.64, -35381.25, -25158.47, -19994.30, -25468.92, -24843.36, -27460.66, -27156.07, 0.000, 0.000, 0.000, 10:28:44.836, 1583738924836
67, -31549.69, -35495.44, -25421.26, -20201.04, -26387.64, -24971.66, -27943.46, -27690.70, 0.000, 0.000, 0.000, 10:28:44.836, 1583738924836
68, -32290.63, -35585.96, -25812.93, -20505.51, -27437.53, -25144.35, -28346.73, -28348.85, 0.000, 0.000, 0.000, 10:28:44.837, 1583738924837
69, -31984.27, -35529.30, -25726.54, -20419.12, -27130.48, -25087.96, -28112.15, -28179.87, 0.000, 0.000, 0.000, 10:28:44.837, 1583738924837
70, -31038.12, -35412.79, -25376.43, -20162.17, -25934.24, -24937.93, -27558.92, -27473.00, 0.000, 0.000, 0.000, 10:28:44.838, 1583738924838
71, -30780.23, -35394.90, -25155.57, -19985.30, -25464.38, -24841.50, -27455.83, -27153.44, 0.000, 0.000, 0.000, 10:28:44.838, 1583738924838
72, -31547.56, -35502.19, -25426.11, -20198.00, -26382.93, -24972.69, -27939.61, -27689.56, 0.000, -0.020, 0.968, 10:28:44.838, 1583738924838
73, -32289.93, -35586.57, -25822.70, -20514.68, -27441.17, -25151.48, -28350.19, -28355.89, 0.000, 0.000, 0.000, 10:28:44.838, 1583738924838
74, -31990.75, -35535.85, -25733.41, -20429.05, -27139.62, -25095.29, -28119.66, -28189.17, 0.000, 0.000, 0.000, 10:28:44.838, 1583738924838
75, -31045.81, -35417.07, -25375.20, -20162.93, -25937.86, -24937.75, -27562.81, -27476.46, 0.000, 0.000, 0.000, 10:28:44.838, 1583738924838
76, -30783.13, -35397.88, -25155.14, -19990.86, -25467.82, -24844.21, -27459.09, -27157.46, 0.000, 0.000, 0.000, 10:28:44.839, 1583738924839
77, -31548.86, -35507.45, -25424.42, -20206.58, -26386.90, -24978.25, -27942.38, -27694.73, 0.000, 0.000, 0.000, 10:28:44.839, 1583738924839
78, -32289.31, -35587.13, -25817.94, -20514.43, -27440.30, -25151.30, -28347.62, -28357.32, 0.000, 0.000, 0.000, 10:28:44.839, 1583738924839
79, -31986.04, -35520.47, -25730.59, -20423.06, -27140.87, -25090.48, -28114.00, -28186.89, 0.000, 0.000, 0.000, 10:28:44.839, 1583738924839
80, -31045.14, -35404.83, -25383.02, -20168.16, -25948.85, -24943.45, -27562.18, -27480.89, 0.000, 0.000, 0.000, 10:28:44.839, 1583738924839
81, -30778.04, -35392.02, -25160.71, -19998.60, -25473.32, -24850.38, -27455.56, -27156.43, 0.000, 0.000, 0.000, 10:28:44.839, 1583738924839
82, -31539.16, -35506.13, -25420.30, -20206.11, -26382.52, -24977.27, -27934.38, -27685.90, 0.002, -0.020, 0.970, 10:28:44.840, 1583738924840
83, -32291.43, -35593.74, -25820.00, -20520.17, -27443.38, -25154.52, -28350.95, -28355.91, 0.000, 0.000, 0.000, 10:28:44.840, 1583738924840
84, -31998.69, -35539.63, -25732.06, -20429.09, -27142.88, -25093.34, -28121.04, -28190.29, 0.000, 0.000, 0.000, 10:28:44.840, 1583738924840
85, -31053.43, -35420.50, -25380.58, -20170.08, -25944.27, -24940.34, -27564.10, -27479.64, 0.000, 0.000, 0.000, 10:28:44.840, 1583738924840
86, -30784.01, -35398.05, -25161.89, -20001.73, -25466.79, -24849.91, -27461.04, -27158.82, 0.000, 0.000, 0.000, 10:28:44.840, 1583738924840
87, -31544.26, -35506.17, -25419.07, -20205.87, -26374.39, -24978.32, -27941.71, -27689.83, 0.000, 0.000, 0.000, 10:28:44.840, 1583738924840
88, -32288.59, -35588.36, -25811.95, -20507.32, -27434.04, -25148.93, -28352.09, -28354.13, 0.000, 0.000, 0.000, 10:28:44.841, 1583738924841
89, -31992.23, -35527.85, -25718.01, -20412.37, -27136.18, -25083.35, -28117.15, -28184.79, 0.000, 0.000, 0.000, 10:28:44.841, 1583738924841
90, -31050.55, -35411.00, -25367.11, -20149.65, -25935.73, -24928.77, -27559.52, -27473.15, 0.000, 0.000, 0.000, 10:28:45.299, 1583738925299
91, -30772.70, -35382.79, -25149.45, -19980.76, -25451.01, -24836.27, -27449.46, -27146.97, 0.000, 0.000, 0.000, 10:28:45.299, 1583738925299
92, -31531.76, -35484.78, -25412.81, -20190.31, -26361.24, -24966.94, -27931.32, -27676.49, 0.000, 0.000, 0.000, 10:28:45.299, 1583738925299
93, -32285.57, -35578.21, -25818.72, -20509.22, -27438.84, -25148.82, -28352.94, -28349.25, 0.000, -0.024, 0.968, 10:28:45.299, 1583738925299
94, -31995.34, -35529.53, -25739.87, -20422.50, -27153.28, -25090.62, -28126.52, -28190.71, 0.000, 0.000, 0.000, 10:28:45.299, 1583738925299
95, -31050.80, -35407.62, -25386.15, -20163.08, -25951.43, -24938.20, -27567.88, -27481.67, 0.000, 0.000, 0.000, 10:28:45.300, 1583738925300
96, -30773.10, -35387.88, -25165.92, -19996.85, -25463.91, -24848.30, -27458.42, -27155.60, 0.000, 0.000, 0.000, 10:28:45.300, 1583738925300
97, -31529.41, -35497.96, -25426.83, -20202.73, -26370.19, -24974.88, -27937.45, -27680.67, 0.000, 0.000, 0.000, 10:28:45.300, 1583738925300
98, -32284.54, -35585.03, -25823.06, -20515.37, -27438.31, -25150.56, -28354.28, -28351.62, 0.000, 0.000, 0.000, 10:28:45.300, 1583738925300
99, -32002.47, -35526.82, -25734.55, -20428.15, -27152.88, -25091.93, -28127.81, -28192.95, 0.000, 0.000, 0.000, 10:28:45.306, 1583738925306
100, -31059.51, -35412.63, -25387.31, -20170.93, -25957.10, -24942.91, -27571.10, -27487.04, 0.000, 0.000, 0.000, 10:28:45.306, 1583738925306
101, -30773.52, -35388.82, -25160.62, -20001.12, -25461.14, -24849.93, -27455.00, -27156.29, 0.000, 0.000, 0.000, 10:28:45.307, 1583738925307
102, -31529.37, -35493.70, -25414.65, -20205.06, -26355.32, -24976.98, -27932.04, -27680.06, 0.000, 0.000, 0.000, 10:28:45.307, 1583738925307
103, -32283.99, -35577.58, -25815.21, -20511.35, -27427.33, -25151.97, -28348.92, -28351.46, -0.002, -0.026, 0.964, 10:28:45.307, 1583738925307
104, -31999.81, -35522.40, -25732.02, -20421.71, -27151.09, -25089.99, -28121.62, -28193.35, 0.000, 0.000, 0.000, 10:28:45.308, 1583738925308
105, -31062.26, -35408.98, -25381.39, -20167.73, -25957.71, -24942.82, -27568.13, -27490.12, 0.000, 0.000, 0.000, 10:28:45.313, 1583738925313
106, -30772.85, -35380.66, -25158.54, -19997.48, -25458.12, -24849.46, -27450.94, -27155.29, 0.000, 0.000, 0.000, 10:28:45.314, 1583738925314
107, -31519.76, -35480.87, -25411.96, -20200.21, -26352.30, -24973.85, -27924.46, -27671.23, 0.000, 0.000, 0.000, 10:28:45.314, 1583738925314
108, -32278.20, -35577.07, -25813.27, -20516.02, -27427.02, -25150.56, -28346.08, -28345.16, 0.000, 0.000, 0.000, 10:28:45.314, 1583738925314
109, -32000.86, -35529.26, -25732.71, -20422.77, -27153.70, -25086.21, -28124.08, -28190.20, 0.000, 0.000, 0.000, 10:28:45.314, 1583738925314
110, -31061.70, -35411.38, -25384.09, -20163.49, -25959.99, -24933.62, -27567.50, -27481.38, 0.000, 0.000, 0.000, 10:28:45.315, 1583738925315
111, -30770.15, -35390.48, -25155.41, -19989.70, -25454.79, -24837.19, -27446.04, -27141.63, 0.000, 0.000, 0.000, 10:28:45.315, 1583738925315
112, -31516.07, -35490.90, -25402.51, -20186.22, -26340.79, -24959.19, -27918.91, -27655.90, 0.000, 0.000, 0.000, 10:28:45.315, 1583738925315
113, -32273.71, -35573.23, -25805.89, -20499.66, -27419.78, -25137.29, -28340.29, -28331.86, 0.002, -0.020, 0.968, 10:28:45.316, 1583738925316
114, -31996.65, -35518.30, -25729.34, -20413.76, -27150.93, -25078.41, -28118.56, -28181.17, 0.000, 0.000, 0.000, 10:28:45.316, 1583738925316
115, -31054.46, -35401.09, -25384.41, -20159.48, -25951.20, -24929.17, -27558.96, -27476.46, 0.000, 0.000, 0.000, 10:28:45.316, 1583738925316
116, -30759.89, -35373.09, -25159.84, -19991.44, -25445.34, -24836.72, -27438.04, -27141.30, 0.000, 0.000, 0.000, 10:28:45.316, 1583738925316
117, -31507.26, -35475.59, -25411.38, -20193.21, -26337.26, -24962.36, -27914.96, -27658.49, 0.000, 0.000, 0.000, 10:28:45.316, 1583738925316
118, -32269.08, -35572.29, -25815.57, -20503.63, -27419.85, -25138.31, -28340.27, -28333.43, 0.000, 0.000, 0.000, 10:28:45.316, 1583738925316
119, -32004.34, -35527.29, -25738.97, -20424.49, -27156.61, -25084.67, -28124.24, -28189.75, 0.000, 0.000, 0.000, 10:28:45.317, 1583738925317
120, -31064.07, -35411.62, -25386.39, -20171.20, -25959.40, -24936.52, -27566.72, -27485.54, 0.000, 0.000, 0.000, 10:28:45.317, 1583738925317
121, -30764.09, -35385.34, -25163.06, -20004.86, -25452.24, -24847.16, -27446.69, -27149.17, 0.000, 0.000, 0.000, 10:28:45.317, 1583738925317
122, -31503.13, -35483.19, -25418.40, -20200.97, -26344.57, -24970.88, -27923.05, -27665.18, 0.000, 0.000, 0.000, 10:28:45.317, 1583738925317
123, -32266.75, -35573.49, -25817.20, -20506.85, -27427.51, -25144.24, -28346.08, -28340.63, 0.006, -0.024, 0.968, 10:28:45.317, 1583738925317
124, -31998.69, -35520.86, -25732.31, -20417.60, -27163.27, -25080.69, -28124.93, -28188.12, 0.000, 0.000, 0.000, 10:28:45.317, 1583738925317
125, -31060.41, -35403.46, -25382.69, -20160.09, -25966.02, -24929.62, -27566.09, -27480.44, 0.000, 0.000, 0.000, 10:28:45.317, 1583738925317
126, -30758.05, -35380.44, -25164.82, -19991.00, -25451.53, -24837.97, -27440.70, -27138.41, 0.000, 0.000, 0.000, 10:28:45.318, 1583738925318
127, -31497.21, -35485.79, -25416.75, -20192.03, -26330.09, -24962.43, -27912.07, -27650.87, 0.000, 0.000, 0.000, 10:28:45.318, 1583738925318
128, -32267.29, -35564.20, -25815.68, -20508.55, -27417.25, -25140.88, -28338.77, -28330.30, 0.000, 0.000, 0.000, 10:28:45.318, 1583738925318
129, -32011.59, -35520.03, -25738.14, -20427.91, -27166.73, -25084.15, -28123.23, -28190.09, 0.000, 0.000, 0.000, 10:28:45.318, 1583738925318
130, -31070.91, -35405.03, -25385.68, -20164.07, -25969.42, -24930.89, -27562.29, -27484.04, 0.000, 0.000, 0.000, 10:28:45.318, 1583738925318
131, -30758.03, -35377.13, -25150.90, -19987.69, -25437.65, -24833.19, -27428.81, -27135.66, 0.000, 0.000, 0.000, 10:28:45.318, 1583738925318
132, -31496.83, -35483.62, -25389.10, -20180.43, -26314.62, -24951.56, -27899.92, -27641.64, 0.000, 0.000, 0.000, 10:28:45.319, 1583738925319
133, -32273.59, -35584.13, -25794.92, -20499.61, -27407.62, -25132.90, -28332.60, -28326.63, 0.008, -0.018, 0.968, 10:28:45.319, 1583738925319
134, -32013.44, -35529.01, -25723.15, -20415.72, -27156.23, -25073.61, -28115.79, -28186.64, 0.000, 0.000, 0.000, 10:28:45.319, 1583738925319
135, -31069.28, -35409.77, -25375.69, -20157.85, -25959.87, -24921.95, -27555.16, -27478.05, 0.000, 0.000, 0.000, 10:28:45.319, 1583738925319
136, -30758.82, -35381.85, -25146.25, -19986.08, -25433.31, -24828.09, -27421.77, -27129.59, 0.000, 0.000, 0.000, 10:28:45.319, 1583738925319
137, -31497.94, -35483.97, -25388.72, -20179.36, -26302.57, -24947.12, -27890.37, -27633.68, 0.000, 0.000, 0.000, 10:28:45.319, 1583738925319
138, -32272.05, -35582.90, -25797.98, -20497.00, -27397.07, -25127.81, -28325.76, -28317.58, 0.000, 0.000, 0.000, 10:28:45.319, 1583738925319
139, -32016.57, -35529.08, -25735.17, -20425.07, -27162.15, -25079.62, -28122.09, -28191.23, 0.000, 0.000, 0.000, 10:28:45.319, 1583738925319
140, -31072.32, -35400.38, -25392.25, -20176.09, -25975.45, -24936.28, -27567.72, -27491.30, 0.000, 0.000, 0.000, 10:28:45.320, 1583738925320
141, -30757.63, -35372.33, -25163.66, -20001.79, -25446.32, -24843.58, -27436.03, -27142.08, 0.000, 0.000, 0.000, 10:28:45.320, 1583738925320
142, -31494.66, -35488.55, -25404.81, -20185.30, -26314.04, -24959.32, -27905.62, -27643.50, 0.000, 0.000, 0.000, 10:28:45.320, 1583738925320
143, -32274.73, -35585.03, -25814.34, -20505.24, -27412.69, -25141.89, -28344.29, -28331.71, 0.002, -0.018, 0.968, 10:28:45.320, 1583738925320
144, -32026.47, -35529.62, -25746.75, -20429.85, -27180.46, -25089.81, -28139.28, -28202.78, 0.000, 0.000, 0.000, 10:28:45.321, 1583738925321
145, -31080.93, -35414.48, -25391.38, -20162.81, -25982.34, -24931.49, -27572.31, -27490.32, 0.000, 0.000, 0.000, 10:28:45.322, 1583738925322
146, -30763.96, -35392.85, -25160.75, -19984.40, -25446.16, -24833.14, -27437.62, -27134.82, 0.000, 0.000, 0.000, 10:28:45.322, 1583738925322
147, -31498.17, -35499.80, -25395.38, -20173.43, -26311.24, -24951.36, -27908.70, -27635.76, 0.000, 0.000, 0.000, 10:28:45.322, 1583738925322
148, -32269.95, -35584.91, -25794.85, -20487.74, -27403.10, -25127.52, -28339.08, -28317.07, 0.000, 0.000, 0.000, 10:28:45.322, 1583738925322
149, -32023.99, -35532.54, -25733.61, -20422.74, -27176.88, -25080.60, -28135.15, -28195.18, 0.000, 0.000, 0.000, 10:28:45.322, 1583738925322
150, -31078.20, -35409.01, -25386.13, -20167.62, -25983.21, -24931.02, -27574.59, -27491.44, 0.000, 0.000, 0.000, 10:28:45.322, 1583738925322
151, -30756.09, -35381.89, -25153.24, -19983.89, -25439.30, -24830.96, -27432.96, -27131.87, 0.000, 0.000, 0.000, 10:28:45.323, 1583738925323
152, -31486.79, -35482.48, -25385.23, -20168.36, -26296.85, -24946.09, -27896.63, -27628.81, 0.000, 0.000, 0.000, 10:28:45.323, 1583738925323
153, -32266.69, -35572.93, -25790.09, -20485.28, -27396.85, -25125.42, -28331.37, -28316.24, 0.004, -0.018, 0.966, 10:28:45.323, 1583738925323
154, -32031.52, -35525.48, -25729.61, -20420.04, -27176.86, -25080.67, -28133.18, -28198.51, 0.000, 0.000, 0.000, 10:28:45.323, 1583738925323
155, -31088.75, -35408.38, -25385.70, -20169.23, -25985.56, -24935.67, -27574.38, -27498.05, 0.000, 0.000, 0.000, 10:28:45.323, 1583738925323
156, -30759.73, -35382.16, -25154.14, -19994.78, -25438.54, -24840.21, -27432.76, -27138.84, 0.000, 0.000, 0.000, 10:28:45.323, 1583738925323
157, -31488.06, -35485.49, -25389.84, -20178.35, -26297.25, -24955.99, -27897.26, -27632.61, 0.000, 0.000, 0.000, 10:28:45.323, 1583738925323
158, -32270.67, -35581.00, -25797.20, -20498.92, -27402.54, -25138.80, -28335.91, -28323.57, 0.000, 0.000, 0.000, 10:28:45.324, 1583738925324
159, -32033.11, -35531.63, -25741.50, -20429.99, -27185.82, -25092.31, -28139.48, -28206.09, 0.000, 0.000, 0.000, 10:28:45.324, 1583738925324
160, -31089.53, -35415.09, -25390.31, -20169.90, -25987.25, -24939.34, -27575.12, -27500.67, 0.000, 0.000, 0.000, 10:28:45.324, 1583738925324
161, -30756.56, -35385.07, -25156.53, -19994.71, -25439.37, -24843.09, -27432.59, -27138.97, 0.000, 0.000, 0.000, 10:28:45.324, 1583738925324
162, -31486.63, -35488.58, -25398.38, -20186.82, -26301.83, -24964.13, -27900.29, -27636.05, 0.000, 0.000, 0.000, 10:28:45.324, 1583738925324
163, -32274.00, -35584.80, -25812.44, -20514.68, -27414.88, -25150.34, -28343.89, -28332.65, 0.002, -0.016, 0.970, 10:28:45.324, 1583738925324
164, -32039.32, -35534.15, -25752.49, -20443.17, -27199.26, -25099.96, -28151.26, -28215.63, 0.000, 0.000, 0.000, 10:28:45.324, 1583738925324
165, -31093.33, -35405.88, -25390.13, -20166.82, -25994.05, -24935.11, -27582.14, -27500.83, 0.000, 0.000, 0.000, 10:28:45.324, 1583738925324
166, -30761.43, -35382.34, -25153.45, -19980.87, -25437.78, -24832.16, -27434.75, -27132.20, 0.000, 0.000, 0.000, 10:28:45.324, 1583738925324
167, -31488.55, -35493.23, -25393.97, -20172.94, -26293.68, -24952.30, -27903.96, -27626.69, 0.000, 0.000, 0.000, 10:28:45.324, 1583738925324
168, -32276.95, -35588.13, -25807.19, -20497.26, -27405.72, -25136.30, -28345.61, -28320.60, 0.000, 0.000, 0.000, 10:28:45.325, 1583738925325
169, -32045.49, -35533.04, -25752.34, -20429.58, -27200.11, -25088.89, -28151.98, -28209.82, 0.000, 0.000, 0.000, 10:28:45.325, 1583738925325
170, -31101.71, -35418.57, -25409.11, -20175.78, -26007.15, -24941.89, -27593.59, -27509.23, 0.000, 0.000, 0.000, 10:28:45.325, 1583738925325
171, -30759.78, -35384.75, -25173.72, -19993.90, -25445.72, -24840.74, -27442.98, -27138.46, 0.000, 0.000, 0.000, 10:28:45.325, 1583738925325
172, -31479.88, -35485.32, -25401.33, -20179.02, -26292.87, -24954.47, -27904.07, -27626.15, 0.000, 0.000, 0.000, 10:28:45.325, 1583738925325
173, -32270.20, -35581.76, -25812.40, -20501.56, -27405.05, -25138.63, -28347.87, -28322.01, 0.002, -0.020, 0.968, 10:28:45.325, 1583738925325
174, -32044.18, -35531.16, -25757.28, -20430.43, -27201.33, -25087.69, -28153.38, -28209.53, 0.000, 0.000, 0.000, 10:28:45.325, 1583738925325
175, -31102.94, -35411.44, -25410.15, -20177.52, -26010.05, -24939.88, -27589.49, -27509.12, 0.000, 0.000, 0.000, 10:28:45.325, 1583738925325
176, -30755.31, -35380.26, -25176.20, -20003.60, -25446.66, -24845.15, -27438.51, -27141.28, 0.000, 0.000, 0.000, 10:28:45.325, 1583738925325
177, -31466.70, -35479.95, -25399.63, -20179.73, -26284.89, -24952.71, -27892.70, -27621.41, 0.000, 0.000, 0.000, 10:28:45.325, 1583738925325
178, -32256.90, -35572.13, -25800.93, -20493.29, -27393.00, -25129.10, -28333.16, -28311.88, 0.000, 0.000, 0.000, 10:28:45.326, 1583738925326
179, -32033.78, -35524.39, -25745.45, -20425.92, -27194.43, -25081.58, -28142.39, -28203.74, 0.000, 0.000, 0.000, 10:28:45.326, 1583738925326
180, -31094.90, -35411.00, -25404.23, -20174.37, -26005.99, -24937.66, -27583.82, -27506.93, 0.000, 0.000, 0.000, 10:28:45.326, 1583738925326
181, -30750.34, -35375.86, -25168.78, -19998.98, -25438.21, -24842.55, -27431.33, -27137.50, 0.000, 0.000, 0.000, 10:28:45.326, 1583738925326
182, -31466.83, -35464.64, -25387.47, -20175.13, -26273.11, -24949.04, -27889.03, -27615.94, 0.000, 0.000, 0.000, 10:28:45.326, 1583738925326
183, -32265.64, -35581.14, -25801.49, -20500.55, -27394.48, -25138.27, -28339.87, -28317.85, 0.000, 0.000, 0.000, 10:28:45.326, 1583738925326
184, -32049.43, -35540.19, -25757.59, -20444.85, -27207.66, -25099.58, -28153.63, -28220.22, 0.004, -0.020, 0.966, 10:28:45.326, 1583738925326
185, -31108.62, -35424.74, -25416.10, -20187.04, -26019.08, -24948.66, -27591.86, -27519.04, 0.000, 0.000, 0.000, 10:28:45.326, 1583738925326
186, -30757.65, -35390.72, -25180.76, -20002.49, -25442.59, -24847.49, -27438.02, -27143.20, 0.000, 0.000, 0.000, 10:28:45.326, 1583738925326
187, -31466.92, -35486.12, -25400.05, -20172.05, -26274.45, -24951.81, -27891.91, -27616.72, 0.000, 0.000, 0.000, 10:28:45.327, 1583738925327
188, -32261.59, -35581.94, -25800.10, -20486.96, -27387.30, -25129.13, -28333.85, -28310.54, 0.000, 0.000, 0.000, 10:28:45.327, 1583738925327
189, -32049.94, -35538.65, -25753.05, -20432.27, -27204.49, -25090.57, -28151.55, -28216.13, 0.000, 0.000, 0.000, 10:28:45.327, 1583738925327
190, -31114.12, -35419.94, -25411.12, -20175.73, -26018.70, -24943.05, -27592.85, -27516.76, 0.000, 0.000, 0.000, 10:28:45.327, 1583738925327
191, -30757.81, -35385.02, -25172.40, -19992.18, -25441.07, -24843.56, -27432.07, -27138.62, 0.000, 0.000, 0.000, 10:28:45.327, 1583738925327
192, -31470.23, -35483.93, -25395.83, -20171.15, -26275.30, -24956.77, -27891.78, -27619.29, 0.000, 0.000, 0.000, 10:28:45.327, 1583738925327
193, -32265.68, -35574.68, -25801.38, -20495.57, -27391.21, -25139.23, -28337.27, -28316.51, 0.000, 0.000, 0.000, 10:28:45.327, 1583738925327
194, -32051.93, -35527.36, -25753.72, -20438.14, -27210.59, -25095.44, -28154.48, -28219.21, 0.002, -0.022, 0.970, 10:28:45.327, 1583738925327
195, -31109.67, -35409.07, -25409.66, -20182.78, -26021.83, -24946.38, -27591.04, -27518.88, 0.000, 0.000, 0.000, 10:28:45.327, 1583738925327
196, -30751.93, -35381.54, -25171.08, -20000.88, -25440.38, -24846.85, -27430.15, -27140.43, 0.000, 0.000, 0.000, 10:28:45.328, 1583738925328
197, -31456.26, -35484.87, -25391.25, -20178.80, -26267.19, -24955.03, -27883.44, -27613.34, 0.000, 0.000, 0.000, 10:28:45.328, 1583738925328
198, -32256.49, -35580.49, -25799.81, -20495.61, -27384.08, -25133.60, -28330.77, -28309.06, 0.000, 0.000, 0.000, 10:28:45.328, 1583738925328
199, -32058.41, -35535.27, -25753.28, -20433.38, -27209.49, -25090.53, -28153.50, -28216.10, 0.000, 0.000, 0.000, 10:28:45.328, 1583738925328
200, -31117.36, -35412.89, -25411.36, -20176.40, -26020.34, -24941.13, -27590.66, -27516.20, 0.000, 0.000, 0.000, 10:28:45.328, 1583738925328
201, -30751.95, -35375.01, -25175.57, -19998.20, -25435.08, -24845.13, -27430.89, -27137.70, 0.000, 0.000, 0.000, 10:28:45.328, 1583738925328
202, -31461.11, -35474.63, -25396.45, -20173.92, -26260.62, -24955.36, -27887.31, -27613.59, 0.000, 0.000, 0.000, 10:28:45.328, 1583738925328
203, -32259.13, -35572.20, -25800.44, -20498.05, -27383.95, -25138.65, -28334.39, -28314.47, 0.000, 0.000, 0.000, 10:28:45.328, 1583738925328
204, -32053.81, -35530.36, -25758.60, -20444.71, -27215.95, -25099.80, -28155.96, -28228.06, 0.002, -0.026, 0.968, 10:28:45.329, 1583738925329
205, -31114.37, -35414.86, -25417.55, -20183.74, -26028.38, -24948.99, -27592.94, -27527.60, 0.000, 0.000, 0.000, 10:28:45.329, 1583738925329
206, -30746.92, -35378.88, -25173.21, -19995.36, -25436.82, -24845.08, -27423.44, -27140.11, 0.000, 0.000, 0.000, 10:28:45.329, 1583738925329
207, -31450.85, -35476.64, -25395.72, -20175.11, -26262.05, -24957.55, -27877.65, -27614.48, 0.000, 0.000, 0.000, 10:28:45.329, 1583738925329
208, -32251.44, -35573.80, -25805.96, -20501.04, -27387.19, -25140.86, -28327.01, -28315.10, 0.000, 0.000, 0.000, 10:28:45.329, 1583738925329
209, -32057.56, -35536.32, -25768.56, -20445.81, -27227.17, -25101.21, -28156.36, -28230.95, 0.000, 0.000, 0.000, 10:28:45.329, 1583738925329
210, -31117.85, -35414.48, -25423.92, -20184.18, -26039.00, -24948.28, -27595.24, -27530.53, 0.000, 0.000, 0.000, 10:28:45.783, 1583738925783
211, -30746.34, -35385.74, -25174.23, -19994.78, -25441.25, -24843.54, -27426.17, -27140.58, 0.000, 0.000, 0.000, 10:28:45.784, 1583738925784
212, -31448.81, -35493.05, -25392.70, -20166.39, -26261.53, -24951.32, -27878.82, -27608.00, 0.000, 0.000, 0.000, 10:28:45.784, 1583738925784
213, -32257.90, -35588.63, -25809.58, -20492.19, -27388.35, -25137.38, -28335.13, -28310.99, 0.000, 0.000, 0.000, 10:28:45.784, 1583738925784
214, -32064.58, -35542.34, -25769.93, -20441.94, -27233.34, -25099.02, -28163.89, -28228.44, 0.004, -0.024, 0.970, 10:28:45.785, 1583738925785
215, -31116.69, -35420.14, -25418.09, -20183.15, -26042.80, -24944.41, -27594.52, -27524.99, 0.000, 0.000, 0.000, 10:28:45.785, 1583738925785
216, -30743.39, -35376.60, -25173.45, -19999.92, -25440.89, -24844.43, -27425.41, -27136.96, 0.000, 0.000, 0.000, 10:28:45.785, 1583738925785
217, -31441.21, -35476.00, -25387.74, -20166.77, -26251.47, -24949.15, -27876.94, -27600.29, 0.000, 0.000, 0.000, 10:28:45.785, 1583738925785
218, -32252.11, -35580.64, -25802.34, -20489.53, -27380.80, -25134.58, -28333.61, -28306.52, 0.000, 0.000, 0.000, 10:28:45.786, 1583738925786
219, -32062.55, -35537.77, -25757.26, -20432.71, -27224.74, -25092.38, -28159.89, -28223.21, 0.000, 0.000, 0.000, 10:28:45.789, 1583738925789
220, -31122.72, -35418.91, -25414.04, -20185.84, -26042.02, -24948.37, -27599.44, -27531.54, 0.000, 0.000, 0.000, 10:28:45.789, 1583738925789
221, -30746.41, -35388.60, -25173.88, -20002.98, -25442.56, -24847.81, -27430.93, -27142.82, 0.000, 0.000, 0.000, 10:28:45.789, 1583738925789
222, -31446.20, -35494.32, -25389.70, -20170.26, -26250.60, -24950.71, -27882.44, -27604.25, 0.000, 0.000, 0.000, 10:28:45.789, 1583738925789
223, -32252.38, -35590.32, -25799.75, -20487.79, -27376.48, -25128.86, -28334.48, -28305.44, 0.000, 0.000, 0.000, 10:28:45.790, 1583738925790
224, -32066.26, -35544.01, -25764.56, -20437.45, -27231.93, -25091.75, -28167.42, -28227.99, 0.006, -0.026, 0.966, 10:28:45.790, 1583738925790
225, -31127.51, -35425.75, -25421.96, -20183.89, -26049.04, -24944.86, -27603.46, -27533.55, 0.000, 0.000, 0.000, 10:28:45.790, 1583738925790
226, -30739.48, -35385.47, -25176.13, -20000.29, -25439.57, -24843.38, -27422.71, -27137.88, 0.000, 0.000, 0.000, 10:28:45.790, 1583738925790
227, -31431.20, -35480.96, -25385.88, -20166.64, -26243.29, -24948.28, -27868.02, -27596.42, 0.000, 0.000, 0.000, 10:28:45.790, 1583738925790
228, -32244.87, -35583.48, -25805.24, -20499.70, -27379.37, -25139.97, -28327.86, -28308.35, 0.000, 0.000, 0.000, 10:28:45.790, 1583738925790
229, -32064.09, -35542.87, -25772.81, -20456.27, -27242.42, -25108.92, -28167.98, -28241.36, 0.000, 0.000, 0.000, 10:28:45.791, 1583738925791
230, -31131.78, -35427.38, -25430.41, -20205.28, -26064.61, -24965.11, -27610.24, -27550.87, 0.000, 0.000, 0.000, 10:28:45.791, 1583738925791
231, -30747.71, -35387.41, -25178.26, -20011.76, -25444.89, -24856.53, -27425.97, -27150.86, 0.000, 0.000, 0.000, 10:28:45.791, 1583738925791
232, -31435.20, -35489.96, -25381.54, -20170.46, -26236.86, -24953.84, -27864.71, -27601.92, 0.000, 0.000, 0.000, 10:28:45.791, 1583738925791
233, -32246.37, -35582.77, -25793.85, -20492.77, -27372.73, -25135.45, -28318.41, -28306.20, 0.000, 0.000, 0.000, 10:28:45.791, 1583738925791
234, -32070.82, -35540.12, -25764.74, -20451.04, -27240.43, -25103.20, -28159.08, -28238.72, 0.006, -0.026, 0.968, 10:28:45.792, 1583738925792
235, -31131.02, -35420.23, -25423.25, -20196.28, -26057.04, -24952.55, -27598.30, -27539.79, 0.000, 0.000, 0.000, 10:28:45.792, 1583738925792
236, -30744.46, -35389.25, -25177.27, -20001.73, -25438.83, -24846.06, -27419.82, -27138.15, 0.000, 0.000, 0.000, 10:28:45.792, 1583738925792
237, -31430.40, -35493.61, -25382.17, -20157.05, -26230.53, -24943.74, -27863.84, -27588.51, 0.000, 0.000, 0.000, 10:28:45.792, 1583738925792
238, -32243.35, -35588.16, -25796.84, -20485.91, -27367.59, -25129.62, -28325.07, -28297.96, 0.000, 0.000, 0.000, 10:28:45.792, 1583738925792
239, -32074.48, -35542.31, -25764.05, -20438.48, -27236.92, -25091.40, -28164.58, -28227.97, 0.000, 0.000, 0.000, 10:28:45.792, 1583738925792
240, -31138.48, -35421.61, -25424.86, -20184.27, -26059.72, -24942.40, -27604.20, -27532.65, 0.000, 0.000, 0.000, 10:28:45.793, 1583738925793
241, -30744.00, -35383.50, -25178.43, -19998.15, -25442.12, -24840.68, -27426.35, -27131.28, 0.000, 0.000, 0.000, 10:28:45.793, 1583738925793
242, -31427.13, -35476.89, -25379.78, -20152.33, -26230.11, -24936.86, -27869.38, -27576.84, 0.000, 0.000, 0.000, 10:28:45.793, 1583738925793
243, -32247.58, -35587.91, -25798.61, -20479.49, -27374.90, -25122.91, -28335.44, -28291.36, 0.000, 0.000, 0.000, 10:28:45.794, 1583738925794
244, -32079.58, -35549.84, -25764.54, -20428.80, -27247.69, -25083.71, -28175.00, -28227.37, 0.004, -0.024, 0.968, 10:28:45.794, 1583738925794
245, -31140.31, -35425.32, -25421.33, -20175.91, -26066.58, -24935.07, -27608.49, -27533.12, 0.000, 0.000, 0.000, 10:28:45.794, 1583738925794
246, -30749.96, -35388.84, -25177.76, -19993.23, -25446.03, -24836.59, -27430.48, -27134.62, 0.000, 0.000, 0.000, 10:28:45.794, 1583738925794
247, -31435.96, -35489.45, -25385.10, -20161.36, -26235.29, -24944.01, -27876.45, -27590.70, 0.000, 0.000, 0.000, 10:28:45.794, 1583738925794
248, -32251.09, -35590.68, -25805.22, -20490.54, -27377.62, -25133.44, -28341.18, -28306.23, 0.000, 0.000, 0.000, 10:28:45.795, 1583738925795
249, -32085.19, -35544.21, -25776.10, -20449.05, -27258.53, -25103.33, -28185.53, -28249.27, 0.000, 0.000, 0.000, 10:28:45.795, 1583738925795
250, -31148.65, -35429.91, -25438.12, -20201.57, -26084.11, -24962.70, -27625.66, -27559.63, 0.000, 0.000, 0.000, 10:28:45.795, 1583738925795
251, -30750.12, -35395.57, -25187.13, -20019.76, -25456.36, -24866.76, -27439.63, -27156.72, 0.000, 0.000, 0.000, 10:28:45.795, 1583738925795
252, -31428.03, -35488.04, -25386.02, -20177.21, -26236.41, -24966.27, -27876.36, -27601.12, 0.000, 0.000, 0.000, 10:28:45.795, 1583738925795
253, -32246.57, -35584.33, -25799.19, -20495.19, -27372.75, -25145.87, -28333.56, -28309.45, 0.000, 0.000, 0.000, 10:28:45.796, 1583738925796
254, -32084.63, -35544.05, -25767.45, -20451.80, -27254.02, -25111.65, -28179.71, -28252.63, 0.000, -0.020, 0.964, 10:28:45.796, 1583738925796
255, -31152.27, -35429.21, -25433.78, -20209.13, -26084.62, -24970.96, -27627.40, -27567.66, 0.000, 0.000, 0.000, 10:28:45.796, 1583738925796
0, -30749.72, -35393.14, -25185.70, -20022.02, -25454.75, -24869.36, -27443.96, -27162.38, 0.000, 0.000, 0.000, 10:28:45.796, 1583738925796
1, -31424.83, -35484.09, -25385.43, -20175.38, -26230.82, -24965.45, -27881.79, -27602.84, 0.000, 0.000, 0.000, 10:28:45.796, 1583738925796
2, -32246.77, -35583.62, -25807.46, -20504.39, -27376.66, -25151.25, -28346.97, -28316.24, 0.000, 0.000, 0.000, 10:28:45.796, 1583738925796
3, -32085.17, -35546.00, -25777.17, -20456.38, -27264.59, -25111.27, -28190.85, -28255.49, 0.000, 0.000, 0.000, 10:28:45.797, 1583738925797
4, -31147.69, -35425.37, -25434.79, -20201.24, -26088.75, -24959.61, -27625.19, -27559.97, 0.000, 0.000, 0.000, 10:28:45.797, 1583738925797
5, -30743.62, -35390.28, -25183.87, -20012.21, -25452.09, -24856.05, -27433.88, -27149.28, 0.000, 0.000, 0.000, 10:28:45.797, 1583738925797
6, -31414.19, -35485.43, -25378.51, -20165.14, -26223.40, -24953.20, -27868.29, -27585.92, 0.000, 0.000, 0.000, 10:28:45.797, 1583738925797
7, -32234.92, -35578.95, -25792.82, -20494.45, -27367.34, -25138.87, -28332.24, -28299.25, 0.000, 0.000, 0.000, 10:28:45.797, 1583738925797
8, -32080.50, -35534.29, -25761.95, -20447.04, -27259.05, -25098.13, -28181.03, -28243.98, -0.002, -0.020, 0.972, 10:28:45.797, 1583738925797
9, -31145.46, -35420.00, -25426.81, -20195.11, -26087.08, -24948.77, -27619.51, -27552.32, 0.000, 0.000, 0.000, 10:28:45.797, 1583738925797
10, -30730.43, -35383.17, -25182.23, -20011.36, -25448.40, -24846.42, -27427.76, -27138.17, 0.000, 0.000, 0.000, 10:28:45.798, 1583738925798
11, -31401.83, -35478.81, -25382.77, -20169.70, -26221.10, -24947.18, -27866.25, -27576.93, 0.000, 0.000, 0.000, 10:28:45.798, 1583738925798
12, -32231.68, -35581.92, -25795.77, -20490.45, -27363.09, -25130.36, -28332.82, -28289.91, 0.000, 0.000, 0.000, 10:28:45.798, 1583738925798
13, -32090.06, -35539.47, -25769.79, -20450.91, -27263.49, -25098.97, -28185.30, -28242.41, 0.000, 0.000, 0.000, 10:28:45.798, 1583738925798
14, -31147.42, -35414.08, -25432.17, -20201.39, -26092.44, -24951.16, -27619.58, -27549.91, 0.000, 0.000, 0.000, 10:28:45.798, 1583738925798
15, -30734.97, -35388.20, -25177.94, -20007.07, -25444.71, -24845.60, -27425.79, -27134.59, 0.000, 0.000, 0.000, 10:28:45.798, 1583738925798
16, -31406.53, -35485.83, -25369.10, -20154.28, -26208.92, -24940.41, -27860.89, -27571.50, 0.000, 0.000, 0.000, 10:28:45.798, 1583738925798
17, -32235.95, -35587.44, -25793.96, -20487.03, -27363.41, -25131.21, -28332.11, -28294.09, 0.000, 0.000, 0.000, 10:28:45.798, 1583738925798
18, -32100.35, -35546.34, -25781.33, -20452.14, -27271.12, -25105.08, -28191.63, -28253.39, 0.000, 0.000, 0.000, 10:28:45.798, 1583738925798
19, -31166.80, -35431.27, -25444.38, -20201.17, -26101.16, -24960.77, -27633.82, -27566.81, 0.000, -0.022, 0.964, 10:28:45.798, 1583738925798
20, -30745.43, -35393.50, -25185.19, -20007.98, -25450.21, -24858.07, -27434.75, -27151.38, 0.000, 0.000, 0.000, 10:28:45.798, 1583738925798
21, -31411.38, -35484.89, -25378.37, -20170.04, -26216.38, -24963.08, -27871.39, -27591.15, 0.000, 0.000, 0.000, 10:28:45.799, 1583738925799
22, -32242.05, -35586.88, -25806.74, -20506.70, -27374.20, -25156.82, -28346.41, -28315.14, 0.000, 0.000, 0.000, 10:28:45.799, 1583738925799
23, -32096.08, -35541.46, -25784.39, -20458.98, -27283.25, -25118.40, -28201.84, -28266.71, 0.000, 0.000, 0.000, 10:28:45.799, 1583738925799
24, -31165.88, -35424.14, -25447.93, -20210.98, -26115.82, -24975.66, -27645.82, -27580.35, 0.000, 0.000, 0.000, 10:28:45.799, 1583738925799
25, -30747.53, -35389.05, -25195.58, -20024.01, -25467.04, -24873.47, -27450.73, -27162.55, 0.000, 0.000, 0.000, 10:28:45.799, 1583738925799
26, -31412.34, -35478.32, -25389.08, -20174.84, -26226.62, -24967.93, -27882.59, -27591.91, 0.000, 0.000, 0.000, 10:28:45.799, 1583738925799
27, -32242.17, -35580.22, -25805.02, -20498.43, -27378.18, -25148.86, -28346.17, -28305.44, 0.000, 0.000, 0.000, 10:28:45.799, 1583738925799
28, -32104.93, -35551.25, -25785.62, -20457.30, -27290.50, -25115.20, -28204.12, -28264.16, 0.000, 0.000, 0.000, 10:28:45.799, 1583738925799
29, -31170.54, -35433.59, -25445.49, -20208.26, -26116.36, -24967.37, -27640.37, -27574.72, 0.000, -0.022, 0.962, 10:28:45.800, 1583738925800
30, -30742.19, -35391.06, -25193.86, -20020.63, -25461.07, -24863.05, -27439.65, -27152.50, 0.000, 0.000, 0.000, 10:28:45.800, 1583738925800
31, -31404.29, -35479.10, -25387.83, -20174.10, -26216.83, -24959.72, -27872.20, -27582.48, 0.000, 0.000, 0.000, 10:28:45.800, 1583738925800
32, -32233.99, -35581.72, -25803.59, -20495.41, -27368.28, -25140.97, -28339.98, -28297.02, 0.000, 0.000, 0.000, 10:28:45.800, 1583738925800
33, -32100.70, -35553.00, -25781.42, -20455.96, -27286.56, -25107.45, -28196.23, -28259.85, 0.000, 0.000, 0.000, 10:28:45.800, 1583738925800
34, -31168.32, -35434.69, -25440.67, -20209.46, -26113.77, -24961.18, -27630.67, -27574.07, 0.000, 0.000, 0.000, 10:28:45.800, 1583738925800
35, -30742.25, -35394.77, -25181.59, -20012.23, -25446.19, -24852.10, -27427.73, -27149.12, 0.000, 0.000, 0.000, 10:28:45.800, 1583738925800
36, -31401.99, -35491.13, -25363.84, -20150.97, -26194.59, -24940.37, -27857.96, -27571.88, 0.000, 0.000, 0.000, 10:28:45.801, 1583738925801
37, -32232.24, -35591.87, -25784.79, -20480.34, -27354.04, -25126.31, -28330.10, -28291.29, 0.000, 0.000, 0.000, 10:28:45.801, 1583738925801
38, -32101.96, -35549.04, -25780.41, -20450.37, -27282.34, -25099.73, -28196.03, -28259.76, 0.000, 0.000, 0.000, 10:28:45.801, 1583738925801
39, -31171.94, -35431.49, -25450.63, -20205.24, -26115.53, -24958.34, -27637.08, -27576.40, 0.004, -0.022, 0.966, 10:28:45.801, 1583738925801
40, -30740.17, -35390.05, -25184.87, -20012.03, -25448.11, -24852.59, -27431.27, -27150.10, 0.000, 0.000, 0.000, 10:28:45.801, 1583738925801
41, -31395.46, -35485.65, -25364.96, -20156.60, -26197.72, -24944.70, -27860.64, -27572.40, 0.000, 0.000, 0.000, 10:28:45.801, 1583738925801
42, -32233.61, -35592.27, -25791.99, -20495.86, -27366.98, -25141.13, -28342.59, -28302.31, 0.000, 0.000, 0.000, 10:28:45.801, 1583738925801
43, -32108.15, -35555.45, -25786.29, -20467.38, -27302.41, -25117.06, -28213.42, -28276.43, 0.000, 0.000, 0.000, 10:28:45.801, 1583738925801
44, -31181.67, -35439.41, -25451.48, -20213.40, -26133.50, -24968.84, -27651.88, -27590.10, 0.000, 0.000, 0.000, 10:28:45.802, 1583738925802
45, -30748.38, -35391.71, -25189.23, -20014.78, -25455.44, -24861.58, -27441.79, -27160.99, 0.000, 0.000, 0.000, 10:28:45.802, 1583738925802
46, -31398.97, -35484.69, -25375.40, -20156.71, -26195.77, -24954.07, -27868.09, -27579.01, 0.000, 0.000, 0.000, 10:28:45.802, 1583738925802
47, -32235.75, -35585.18, -25803.50, -20493.53, -27363.63, -25146.85, -28345.63, -28304.10, 0.000, 0.000, 0.000, 10:28:45.802, 1583738925802
48, -32115.46, -35553.18, -25795.39, -20468.99, -27303.21, -25124.01, -28216.42, -28281.75, 0.000, 0.000, 0.000, 10:28:45.802, 1583738925802
49, -31183.72, -35430.35, -25454.59, -20213.87, -26133.68, -24974.43, -27650.36, -27593.21, 0.008, -0.018, 0.970, 10:28:45.802, 1583738925802
50, -30746.28, -35384.31, -25197.52, -20016.72, -25462.17, -24868.24, -27445.33, -27161.88, 0.000, 0.000, 0.000, 10:28:45.802, 1583738925802
51, -31392.76, -35479.84, -25387.07, -20168.36, -26201.90, -24966.16, -27875.44, -27580.64, 0.000, 0.000, 0.000, 10:28:45.803, 1583738925803
52, -32225.54, -35589.23, -25813.02, -20509.33, -27360.90, -25157.13, -28347.60, -28304.44, 0.000, 0.000, 0.000, 10:28:45.803, 1583738925803
53, -32112.77, -35558.25, -25791.65, -20460.25, -27294.36, -25114.58, -28209.55, -28271.51, 0.000, 0.000, 0.000, 10:28:45.803, 1583738925803
54, -31184.17, -35432.32, -25450.68, -20201.39, -26128.47, -24960.39, -27643.12, -27581.16, 0.000, 0.000, 0.000, 10:28:45.803, 1583738925803
55, -30739.53, -35386.70, -25188.81, -20004.97, -25448.64, -24851.92, -27428.96, -27147.36, 0.000, 0.000, 0.000, 10:28:45.803, 1583738925803
56, -31382.50, -35478.72, -25372.72, -20149.78, -26178.21, -24944.12, -27850.81, -27562.07, 0.000, 0.000, 0.000, 10:28:45.803, 1583738925803
57, -32215.14, -35577.18, -25802.52, -20493.40, -27343.42, -25137.53, -28326.59, -28287.61, 0.000, 0.000, 0.000, 10:28:45.803, 1583738925803
58, -32103.83, -35536.68, -25791.88, -20463.85, -27291.50, -25111.67, -28200.57, -28270.17, 0.000, 0.000, 0.000, 10:28:45.804, 1583738925804
59, -31180.10, -35420.32, -25448.11, -20208.97, -26128.50, -24963.39, -27640.77, -27587.55, 0.008, -0.024, 0.970, 10:28:45.804, 1583738925804
60, -30741.49, -35386.70, -25183.29, -20006.02, -25443.77, -24853.48, -27428.38, -27151.65, 0.000, 0.000, 0.000, 10:28:45.804, 1583738925804
61, -31380.11, -35477.29, -25361.79, -20148.29, -26165.51, -24942.74, -27844.30, -27561.06, 0.000, 0.000, 0.000, 10:28:45.804, 1583738925804
62, -32217.80, -35580.64, -25794.78, -20492.46, -27330.35, -25136.01, -28319.26, -28287.45, 0.000, 0.000, 0.000, 10:28:45.804, 1583738925804
63, -32109.69, -35543.99, -25781.51, -20449.86, -27283.52, -25100.61, -28196.14, -28265.05, 0.000, 0.000, 0.000, 10:28:45.805, 1583738925805
64, -31187.61, -35430.60, -25443.77, -20198.76, -26122.42, -24955.74, -27641.15, -27584.55, 0.000, 0.000, 0.000, 10:28:45.806, 1583738925806
65, -30741.63, -35395.59, -25177.92, -20006.93, -25437.98, -24852.95, -27427.98, -27148.16, 0.000, 0.000, 0.000, 10:28:45.806, 1583738925806
66, -31376.84, -35487.95, -25357.99, -20152.69, -26163.97, -24944.97, -27844.46, -27556.30, 0.000, 0.000, 0.000, 10:28:45.806, 1583738925806
67, -32220.53, -35593.41, -25789.49, -20490.56, -27331.02, -25136.64, -28323.73, -28284.81, 0.000, 0.000, 0.000, 10:28:45.806, 1583738925806
68, -32122.52, -35559.19, -25785.24, -20457.50, -27293.71, -25109.99, -28207.88, -28274.29, 0.000, 0.000, 0.000, 10:28:45.806, 1583738925806
69, -31192.64, -35432.63, -25446.05, -20201.75, -26133.30, -24958.31, -27648.35, -27588.29, 0.002, -0.024, 0.968, 10:28:45.806, 1583738925806
70, -30741.94, -35389.92, -25182.12, -19999.60, -25440.40, -24847.00, -27429.79, -27144.74, 0.000, 0.000, 0.000, 10:28:45.806, 1583738925806
71, -31374.54, -35479.95, -25357.38, -20137.24, -26153.84, -24934.96, -27842.09, -27545.75, 0.000, 0.000, 0.000, 10:28:45.807, 1583738925807
72, -32213.24, -35583.21, -25791.63, -20483.47, -27322.84, -25132.10, -28322.36, -28277.68, 0.000, 0.000, 0.000, 10:28:45.807, 1583738925807
73, -32118.05, -35546.40, -25796.73, -20467.74, -27295.73, -25116.52, -28210.07, -28277.84, 0.000, 0.000, 0.000, 10:28:45.807, 1583738925807
74, -31194.72, -35429.21, -25461.32, -20221.91, -26138.73, -24974.65, -27654.22, -27601.54, 0.000, 0.000, 0.000, 10:28:46.261, 1583738926261
75, -30737.94, -35382.00, -25184.96, -20018.00, -25442.01, -24863.48, -27434.33, -27157.86, 0.000, 0.000, 0.000, 10:28:46.261, 1583738926261
76, -31371.72, -35473.91, -25358.63, -20151.08, -26154.94, -24951.01, -27850.25, -27558.74, 0.000, 0.000, 0.000, 10:28:46.261, 1583738926261
77, -32218.14, -35581.09, -25802.34, -20499.99, -27328.90, -25149.67, -28333.81, -28292.41, 0.000, 0.000, 0.000, 10:28:46.261, 1583738926261
