%OpenBCI Raw EEG Data
%Number of channels = 8
%Sample Rate = 250.0 Hz
%First Column = SampleIndex
%Last Column = Timestamp 
%Other Columns = EEG data in microvolts followed by Accel Data (in G) interleaved with Aux Data
0, 0.00, 0.00, 0.00, 0.00, 0.00, 0.00, 0.00, 0.00, 0.000, 0.000, 0.000, 10:37:19.411, 1583739439411
1, -26565.49, -31981.21, -21001.27, -16647.49, -20432.56, -21477.95, -24208.71, -23132.83, -0.002, -0.016, 0.976, 10:37:19.426, 1583739439426
2, -27303.55, -32052.54, -21205.41, -16854.98, -21365.63, -21634.30, -24600.64, -23573.78, 0.000, 0.000, 0.000, 10:37:19.907, 1583739439907
3, -27586.41, -32063.20, -21302.04, -16931.07, -21769.17, -21676.32, -24711.35, -23775.91, 0.000, 0.000, 0.000, 10:37:19.908, 1583739439908
4, -26970.31, -31985.39, -21160.08, -16799.10, -21075.77, -21586.87, -24363.29, -23449.13, 0.000, 0.000, 0.000, 10:37:19.908, 1583739439908
5, -26307.00, -31924.26, -20980.49, -16656.12, -20264.00, -21499.63, -24042.85, -23056.58, 0.000, 0.000, 0.000, 10:37:19.908, 1583739439908
6, -26560.26, -31975.42, -21004.07, -16650.98, -20436.22, -21488.01, -24209.78, -23138.35, 0.000, 0.000, 0.000, 10:37:19.909, 1583739439909
7, -27296.02, -32050.23, -21209.32, -16858.96, -21368.80, -21641.67, -24601.60, -23576.13, 0.000, 0.000, 0.000, 10:37:19.909, 1583739439909
8, -27588.73, -32066.68, -21315.27, -16949.13, -21781.37, -21691.07, -24718.68, -23783.69, -0.002, -0.020, 0.978, 10:37:19.909, 1583739439909
9, -26976.23, -31988.36, -21159.95, -16800.96, -21080.18, -21588.16, -24366.51, -23448.48, 0.000, 0.000, 0.000, 10:37:19.909, 1583739439909
10, -26310.66, -31924.41, -20976.75, -16650.60, -20265.25, -21494.46, -24044.84, -23051.67, 0.000, 0.000, 0.000, 10:37:19.909, 1583739439909
11, -26567.42, -31977.21, -21013.12, -16661.21, -20444.89, -21494.58, -24219.30, -23144.16, 0.000, 0.000, 0.000, 10:37:19.909, 1583739439909
12, -27305.65, -32051.84, -21212.23, -16860.43, -21372.87, -21642.84, -24607.24, -23578.01, 0.000, 0.000, 0.000, 10:37:19.913, 1583739439913
13, -27588.85, -32065.03, -21309.39, -16936.27, -21777.19, -21681.17, -24716.65, -23776.85, 0.000, 0.000, 0.000, 10:37:19.913, 1583739439913
14, -26974.17, -31989.66, -21157.24, -16793.40, -21080.18, -21580.90, -24367.04, -23446.11, 0.000, 0.000, 0.000, 10:37:19.913, 1583739439913
15, -26312.12, -31928.26, -20980.49, -16647.49, -20267.98, -21490.17, -24048.53, -23053.34, 0.000, 0.000, 0.000, 10:37:19.914, 1583739439914
16, -26563.39, -31978.64, -21006.59, -16645.79, -20434.54, -21478.30, -24215.99, -23133.72, 0.000, 0.000, 0.000, 10:37:19.914, 1583739439914
17, -27294.77, -32052.51, -21206.91, -16849.62, -21361.32, -21627.93, -24602.01, -23564.42, 0.000, 0.000, 0.000, 10:37:19.914, 1583739439914
18, -27585.52, -32066.79, -21301.41, -16929.52, -21769.39, -21669.37, -24712.18, -23767.97, -0.002, -0.018, 0.972, 10:37:19.914, 1583739439914
19, -26977.84, -31988.68, -21149.53, -16790.90, -21075.73, -21571.27, -24362.15, -23440.59, 0.000, 0.000, 0.000, 10:37:19.914, 1583739439914
20, -26309.54, -31923.86, -20966.92, -16634.03, -20257.21, -21474.44, -24037.58, -23040.65, 0.000, 0.000, 0.000, 10:37:19.914, 1583739439914
21, -26559.26, -31975.44, -20994.37, -16634.82, -20427.48, -21469.45, -24205.64, -23125.45, 0.000, 0.000, 0.000, 10:37:19.914, 1583739439914
22, -27289.54, -32045.83, -21198.66, -16848.77, -21355.53, -21627.41, -24591.84, -23561.33, 0.000, 0.000, 0.000, 10:37:19.914, 1583739439914
23, -27579.79, -32060.58, -21304.63, -16939.92, -21774.33, -21677.55, -24709.32, -23771.33, 0.000, 0.000, 0.000, 10:37:19.915, 1583739439915
24, -26975.56, -31984.25, -21164.29, -16805.54, -21091.53, -21586.08, -24369.59, -23450.71, 0.000, 0.000, 0.000, 10:37:19.915, 1583739439915
25, -26306.53, -31914.31, -20980.64, -16648.34, -20273.41, -21488.34, -24047.59, -23053.16, 0.000, 0.000, 0.000, 10:37:19.915, 1583739439915
26, -26554.56, -31966.90, -21005.21, -16641.46, -20439.71, -21476.20, -24212.84, -23133.70, 0.000, 0.000, 0.000, 10:37:19.915, 1583739439915
27, -27281.94, -32041.11, -21200.90, -16841.77, -21358.59, -21625.18, -24591.43, -23559.65, 0.000, 0.000, 0.000, 10:37:19.915, 1583739439915
28, -27577.27, -32058.12, -21297.23, -16919.89, -21770.58, -21666.57, -24701.45, -23761.40, 0.002, -0.016, 0.970, 10:37:19.915, 1583739439915
29, -26979.22, -31987.49, -21156.62, -16791.77, -21087.84, -21578.40, -24361.81, -23444.12, 0.000, 0.000, 0.000, 10:37:19.915, 1583739439915
30, -26310.91, -31922.89, -20976.31, -16648.61, -20273.48, -21487.96, -24039.28, -23049.92, 0.000, 0.000, 0.000, 10:37:19.915, 1583739439915
31, -26561.07, -31976.09, -21004.63, -16643.76, -20438.10, -21479.27, -24206.13, -23130.32, 0.000, 0.000, 0.000, 10:37:19.916, 1583739439916
32, -27286.70, -32048.00, -21200.54, -16843.63, -21356.11, -21633.09, -24589.85, -23560.19, 0.000, 0.000, 0.000, 10:37:19.916, 1583739439916
33, -27579.30, -32065.05, -21305.97, -16939.34, -21777.97, -21687.76, -24710.63, -23774.70, 0.000, 0.000, 0.000, 10:37:19.916, 1583739439916
34, -26977.28, -31987.00, -21162.63, -16805.65, -21095.49, -21592.39, -24367.54, -23454.11, 0.000, 0.000, 0.000, 10:37:19.916, 1583739439916
35, -26312.12, -31921.75, -20978.59, -16661.46, -20273.90, -21499.27, -24042.23, -23059.53, 0.000, 0.000, 0.000, 10:37:19.916, 1583739439916
36, -26559.84, -31971.82, -21002.79, -16651.40, -20432.42, -21483.58, -24207.32, -23135.26, 0.000, 0.000, 0.000, 10:37:19.917, 1583739439917
37, -27278.27, -32036.66, -21199.87, -16845.39, -21348.13, -21631.39, -24588.17, -23558.02, 0.000, 0.000, 0.000, 10:37:19.917, 1583739439917
38, -27572.04, -32052.00, -21301.35, -16932.47, -21769.46, -21679.16, -24705.63, -23766.07, 0.002, -0.012, 0.974, 10:37:19.917, 1583739439917
39, -26980.77, -31985.95, -21160.89, -16801.16, -21092.58, -21586.00, -24366.89, -23451.38, 0.000, 0.000, 0.000, 10:37:19.917, 1583739439917
40, -26317.23, -31924.04, -20980.73, -16655.11, -20275.69, -21490.73, -24042.92, -23057.77, 0.000, 0.000, 0.000, 10:37:19.917, 1583739439917
41, -26563.66, -31975.26, -21003.02, -16642.62, -20431.95, -21473.25, -24207.63, -23132.24, 0.000, 0.000, 0.000, 10:37:19.917, 1583739439917
42, -27279.52, -32046.39, -21193.79, -16838.98, -21342.43, -21623.28, -24584.30, -23551.81, 0.000, 0.000, 0.000, 10:37:19.918, 1583739439918
43, -27573.16, -32063.78, -21298.82, -16933.41, -21764.72, -21674.93, -24703.91, -23761.18, 0.000, 0.000, 0.000, 10:37:19.918, 1583739439918
44, -26980.74, -31990.58, -21158.43, -16802.97, -21088.80, -21580.63, -24369.30, -23446.49, 0.000, 0.000, 0.000, 10:37:19.918, 1583739439918
45, -26318.98, -31926.87, -20979.71, -16653.99, -20273.72, -21484.52, -24050.30, -23055.35, 0.000, 0.000, 0.000, 10:37:19.918, 1583739439918
46, -26570.23, -31979.29, -21007.00, -16641.57, -20434.50, -21467.98, -24217.67, -23134.26, 0.000, 0.000, 0.000, 10:37:19.918, 1583739439918
47, -27280.66, -32045.40, -21199.87, -16844.12, -21345.94, -21623.50, -24590.29, -23552.90, 0.000, 0.000, 0.000, 10:37:19.919, 1583739439919
48, -27571.64, -32059.42, -21302.08, -16936.10, -21767.94, -21675.22, -24704.02, -23760.66, -0.002, -0.016, 0.974, 10:37:19.919, 1583739439919
49, -26985.71, -31989.35, -21160.33, -16801.38, -21098.57, -21578.80, -24368.90, -23448.77, 0.000, 0.000, 0.000, 10:37:19.919, 1583739439919
50, -26322.44, -31925.04, -20979.06, -16648.23, -20282.11, -21481.01, -24048.55, -23055.29, 0.000, 0.000, 0.000, 10:37:19.919, 1583739439919
51, -26566.88, -31975.31, -20998.23, -16631.55, -20427.71, -21461.59, -24210.56, -23129.52, 0.000, 0.000, 0.000, 10:37:19.919, 1583739439919
52, -27274.07, -32042.61, -21192.85, -16841.66, -21335.37, -21623.30, -24583.59, -23549.10, 0.000, 0.000, 0.000, 10:37:19.919, 1583739439919
53, -27569.13, -32058.68, -21302.31, -16946.06, -21765.05, -21683.67, -24702.32, -23762.68, 0.000, 0.000, 0.000, 10:37:19.920, 1583739439920
54, -26984.39, -31984.61, -21157.71, -16809.49, -21093.74, -21584.21, -24366.40, -23450.38, 0.000, 0.000, 0.000, 10:37:19.920, 1583739439920
55, -26322.69, -31921.42, -20977.80, -16649.37, -20276.38, -21484.32, -24047.82, -23056.90, 0.000, 0.000, 0.000, 10:37:19.920, 1583739439920
56, -26563.84, -31968.85, -21001.90, -16638.37, -20426.21, -21469.23, -24208.77, -23131.39, 0.000, 0.000, 0.000, 10:37:19.920, 1583739439920
57, -27264.21, -32033.04, -21194.93, -16849.68, -21334.09, -21633.29, -24582.80, -23548.57, 0.000, 0.000, 0.000, 10:37:19.920, 1583739439920
58, -27559.86, -32051.15, -21304.27, -16951.50, -21769.84, -21692.97, -24706.28, -23764.80, 0.002, -0.018, 0.972, 10:37:19.921, 1583739439921
59, -26989.24, -31984.45, -21168.62, -16815.87, -21107.71, -21596.41, -24377.73, -23459.07, 0.000, 0.000, 0.000, 10:37:19.921, 1583739439921
60, -26328.23, -31917.44, -20980.62, -16653.86, -20285.71, -21490.89, -24055.04, -23063.51, 0.000, 0.000, 0.000, 10:37:19.921, 1583739439921
61, -26564.06, -31965.92, -21001.16, -16639.31, -20430.16, -21471.67, -24215.63, -23133.45, 0.000, 0.000, 0.000, 10:37:19.921, 1583739439921
62, -27262.11, -32036.55, -21196.92, -16847.54, -21334.98, -21634.70, -24586.49, -23547.05, 0.000, 0.000, 0.000, 10:37:19.921, 1583739439921
63, -27558.89, -32051.44, -21301.41, -16943.43, -21766.15, -21688.05, -24702.63, -23757.96, 0.000, 0.000, 0.000, 10:37:19.921, 1583739439921
64, -26988.10, -31981.14, -21163.57, -16808.58, -21106.77, -21589.59, -24372.27, -23453.53, 0.000, 0.000, 0.000, 10:37:19.921, 1583739439921
65, -26333.62, -31925.26, -20984.00, -16653.26, -20288.25, -21488.12, -24054.50, -23061.54, 0.000, 0.000, 0.000, 10:37:19.922, 1583739439922
66, -26572.71, -31975.64, -20998.35, -16633.54, -20424.62, -21463.13, -24211.61, -23128.96, 0.000, 0.000, 0.000, 10:37:19.922, 1583739439922
67, -27267.52, -32037.85, -21188.87, -16842.31, -21326.36, -21626.56, -24577.62, -23540.70, 0.000, 0.000, 0.000, 10:37:19.922, 1583739439922
68, -27565.31, -32055.62, -21299.65, -16943.11, -21765.44, -21686.82, -24700.89, -23756.71, 0.000, 0.000, 0.000, 10:37:19.922, 1583739439922
69, -26992.77, -31984.76, -21156.86, -16802.68, -21104.67, -21581.37, -24369.44, -23449.13, 0.008, -0.014, 0.970, 10:37:19.922, 1583739439922
70, -26331.90, -31923.59, -20975.48, -16647.45, -20284.97, -21479.00, -24050.92, -23057.25, 0.000, 0.000, 0.000, 10:37:19.922, 1583739439922
71, -26567.21, -31969.92, -20999.49, -16631.69, -20424.67, -21460.24, -24213.13, -23129.76, 0.000, 0.000, 0.000, 10:37:19.922, 1583739439922
72, -27261.88, -32035.01, -21195.06, -16844.61, -21326.65, -21627.81, -24581.26, -23542.46, 0.000, 0.000, 0.000, 10:37:19.923, 1583739439923
73, -27561.33, -32053.05, -21302.98, -16949.24, -21765.08, -21687.79, -24702.30, -23758.56, 0.000, 0.000, 0.000, 10:37:19.923, 1583739439923
74, -26993.87, -31983.85, -21160.55, -16809.72, -21105.46, -21585.46, -24375.85, -23457.08, 0.000, 0.000, 0.000, 10:37:19.923, 1583739439923
75, -26335.88, -31924.26, -20976.17, -16647.80, -20283.51, -21479.87, -24055.48, -23064.56, 0.000, 0.000, 0.000, 10:37:19.923, 1583739439923
76, -26573.74, -31977.66, -20997.85, -16629.45, -20419.64, -21457.36, -24213.02, -23133.25, 0.000, 0.000, 0.000, 10:37:19.923, 1583739439923
77, -27266.31, -32039.10, -21192.11, -16843.36, -21322.38, -21626.92, -24582.09, -23545.93, 0.000, 0.000, 0.000, 10:37:19.923, 1583739439923
78, -27566.90, -32056.58, -21303.76, -16945.01, -21765.95, -21688.97, -24707.80, -23762.72, 0.000, 0.000, 0.000, 10:37:19.923, 1583739439923
79, -27003.77, -31988.56, -21165.58, -16806.63, -21112.63, -21585.88, -24382.31, -23460.72, 0.002, -0.020, 0.974, 10:37:19.923, 1583739439923
80, -26345.87, -31928.71, -20981.58, -16648.99, -20287.98, -21481.05, -24059.15, -23067.92, 0.000, 0.000, 0.000, 10:37:19.924, 1583739439924
81, -26578.57, -31977.57, -20999.91, -16632.18, -20420.42, -21458.93, -24213.11, -23134.57, 0.000, 0.000, 0.000, 10:37:19.924, 1583739439924
82, -27261.86, -32036.08, -21193.37, -16844.70, -21320.84, -21628.69, -24576.97, -23542.35, 0.000, 0.000, 0.000, 10:37:19.924, 1583739439924
83, -27559.10, -32048.82, -21300.61, -16945.51, -21760.92, -21689.24, -24697.47, -23758.18, 0.000, 0.000, 0.000, 10:37:19.924, 1583739439924
84, -26995.77, -31978.44, -21158.09, -16802.45, -21105.43, -21580.56, -24370.13, -23452.37, 0.000, 0.000, 0.000, 10:37:19.924, 1583739439924
85, -26333.66, -31917.31, -20975.88, -16647.62, -20280.21, -21476.43, -24045.27, -23057.32, 0.000, 0.000, 0.000, 10:37:19.924, 1583739439924
86, -26567.24, -31968.18, -21001.36, -16638.17, -20414.34, -21462.61, -24206.47, -23129.52, 0.000, 0.000, 0.000, 10:37:19.925, 1583739439925
87, -27249.95, -32026.74, -21187.42, -16842.35, -21307.31, -21625.47, -24568.59, -23532.45, 0.000, 0.000, 0.000, 10:37:19.925, 1583739439925
88, -27550.89, -32039.91, -21289.90, -16939.25, -21748.38, -21682.69, -24688.28, -23746.98, 0.000, 0.000, 0.000, 10:37:19.925, 1583739439925
89, -26993.62, -31973.59, -21156.84, -16803.39, -21102.86, -21580.21, -24365.44, -23449.97, 0.008, -0.022, 0.970, 10:37:19.925, 1583739439925
90, -26337.04, -31919.52, -20978.79, -16645.81, -20283.54, -21478.84, -24046.54, -23060.88, 0.000, 0.000, 0.000, 10:37:19.925, 1583739439925
91, -26564.82, -31969.34, -20994.08, -16627.98, -20409.80, -21458.28, -24201.11, -23128.94, 0.000, 0.000, 0.000, 10:37:19.926, 1583739439926
92, -27253.64, -32032.55, -21188.47, -16848.10, -21309.68, -21633.87, -24570.11, -23542.31, 0.000, 0.000, 0.000, 10:37:19.926, 1583739439926
93, -27557.13, -32044.46, -21303.02, -16955.56, -21762.84, -21698.60, -24698.32, -23761.67, 0.000, 0.000, 0.000, 10:37:19.926, 1583739439926
94, -27000.39, -31978.35, -21163.10, -16812.56, -21113.97, -21592.25, -24375.96, -23461.71, 0.000, 0.000, 0.000, 10:37:19.926, 1583739439926
95, -26341.73, -31920.95, -20975.97, -16647.45, -20284.23, -21481.05, -24052.73, -23066.06, 0.000, 0.000, 0.000, 10:37:19.926, 1583739439926
96, -26571.17, -31972.98, -20992.47, -16625.67, -20403.79, -21454.23, -24205.40, -23128.56, 0.000, 0.000, 0.000, 10:37:19.926, 1583739439926
97, -27260.10, -32036.46, -21189.14, -16847.65, -21301.48, -21627.14, -24570.96, -23538.00, 0.000, 0.000, 0.000, 10:37:19.927, 1583739439927
98, -27570.61, -32057.70, -21301.30, -16961.93, -21754.71, -21693.82, -24698.81, -23762.03, 0.000, 0.000, 0.000, 10:37:19.927, 1583739439927
99, -27016.69, -31990.29, -21161.36, -16810.43, -21110.02, -21581.05, -24376.61, -23460.77, 0.008, -0.022, 0.970, 10:37:19.927, 1583739439927
100, -26352.37, -31930.49, -20976.80, -16643.82, -20281.90, -21470.88, -24053.83, -23063.74, 0.000, 0.000, 0.000, 10:37:19.927, 1583739439927
101, -26575.40, -31981.75, -20996.49, -16624.96, -20404.91, -21447.59, -24208.14, -23126.28, 0.000, 0.000, 0.000, 10:37:19.927, 1583739439927
102, -27261.48, -32044.62, -21193.25, -16847.56, -21307.78, -21623.90, -24575.16, -23536.92, 0.000, 0.000, 0.000, 10:37:19.927, 1583739439927
103, -27567.05, -32059.08, -21299.60, -16951.70, -21760.43, -21686.47, -24701.52, -23757.47, 0.000, 0.000, 0.000, 10:37:19.927, 1583739439927
104, -27014.45, -31991.34, -21161.22, -16805.52, -21118.80, -21578.48, -24382.27, -23459.36, 0.000, 0.000, 0.000, 10:37:19.928, 1583739439928
105, -26345.38, -31926.63, -20979.21, -16643.02, -20292.90, -21471.04, -24057.54, -23062.75, 0.000, 0.000, 0.000, 10:37:19.928, 1583739439928
106, -26569.09, -31980.76, -20995.66, -16622.25, -20411.10, -21448.38, -24210.40, -23124.53, 0.000, 0.000, 0.000, 10:37:19.928, 1583739439928
107, -27257.06, -32041.61, -21184.42, -16841.35, -21305.95, -21621.78, -24574.22, -23530.98, 0.000, 0.000, 0.000, 10:37:19.928, 1583739439928
108, -27564.19, -32056.49, -21299.38, -16955.27, -21766.11, -21689.17, -24704.04, -23755.01, 0.000, 0.000, 0.000, 10:37:19.928, 1583739439928
109, -27016.06, -31993.10, -21173.20, -16820.09, -21131.94, -21589.15, -24391.99, -23466.13, 0.010, -0.026, 0.972, 10:37:19.929, 1583739439929
110, -26352.79, -31934.99, -20989.49, -16654.17, -20301.57, -21480.61, -24065.23, -23070.58, 0.000, 0.000, 0.000, 10:37:19.929, 1583739439929
111, -26574.35, -31989.08, -21008.13, -16639.98, -20418.70, -21463.35, -24217.42, -23137.23, 0.000, 0.000, 0.000, 10:37:19.929, 1583739439929
112, -27252.72, -32043.08, -21196.54, -16852.57, -21311.22, -21636.29, -24579.07, -23544.63, 0.000, 0.000, 0.000, 10:37:19.929, 1583739439929
113, -27562.87, -32056.11, -21311.47, -16964.62, -21772.23, -21707.16, -24709.18, -23772.67, 0.000, 0.000, 0.000, 10:37:19.929, 1583739439929
114, -27016.51, -31991.54, -21181.41, -16836.47, -21138.80, -21610.61, -24393.38, -23486.36, 0.000, 0.000, 0.000, 10:37:19.929, 1583739439929
115, -26350.27, -31927.88, -20991.93, -16668.08, -20298.20, -21498.94, -24063.98, -23086.31, 0.000, 0.000, 0.000, 10:37:19.930, 1583739439930
116, -26566.88, -31979.06, -21008.16, -16647.02, -20407.48, -21474.17, -24211.45, -23142.37, 0.000, 0.000, 0.000, 10:37:19.930, 1583739439930
117, -27247.36, -32040.93, -21190.15, -16856.17, -21296.52, -21639.62, -24570.60, -23541.57, 0.000, 0.000, 0.000, 10:37:19.932, 1583739439932
118, -27559.45, -32054.66, -21297.12, -16956.95, -21754.33, -21699.23, -24698.92, -23760.22, 0.000, 0.000, 0.000, 10:37:19.932, 1583739439932
119, -27016.15, -31987.78, -21159.97, -16807.26, -21115.69, -21586.64, -24379.00, -23463.12, 0.004, -0.022, 0.968, 10:37:19.932, 1583739439932
120, -26345.87, -31925.17, -20973.65, -16644.31, -20281.37, -21476.49, -24050.68, -23063.80, 0.000, 0.000, 0.000, 10:37:19.932, 1583739439932
121, -26563.08, -31974.21, -20991.93, -16625.38, -20389.53, -21452.91, -24200.26, -23122.48, 0.000, 0.000, 0.000, 10:37:19.933, 1583739439933
122, -27247.36, -32038.97, -21181.85, -16841.61, -21284.27, -21623.95, -24564.43, -23528.36, 0.000, 0.000, 0.000, 10:37:20.388, 1583739440388
123, -27564.39, -32061.14, -21293.77, -16951.47, -21749.54, -21689.73, -24693.51, -23753.47, 0.000, 0.000, 0.000, 10:37:20.388, 1583739440388
124, -27019.75, -31992.52, -21155.37, -16804.31, -21112.74, -21578.64, -24373.82, -23458.58, 0.000, 0.000, 0.000, 10:37:20.388, 1583739440388
125, -26349.82, -31933.58, -20965.06, -16632.67, -20272.47, -21464.58, -24044.15, -23057.14, 0.000, 0.000, 0.000, 10:37:20.388, 1583739440388
126, -26566.77, -31988.85, -20986.30, -16613.43, -20379.36, -21441.96, -24193.51, -23115.57, 0.000, 0.000, 0.000, 10:37:20.388, 1583739440388
127, -27248.83, -32042.23, -21177.03, -16828.52, -21274.52, -21612.66, -24557.64, -23519.51, 0.000, 0.000, 0.000, 10:37:20.388, 1583739440388
128, -27569.51, -32061.81, -21294.97, -16951.34, -21750.64, -21688.21, -24696.62, -23753.29, 0.000, 0.000, 0.000, 10:37:20.389, 1583739440389
129, -27034.46, -32001.04, -21169.69, -16825.74, -21129.17, -21593.21, -24389.80, -23473.60, -0.002, -0.020, 0.968, 10:37:20.389, 1583739440389
130, -26360.62, -31937.13, -20981.83, -16652.07, -20292.07, -21479.27, -24062.35, -23071.56, 0.000, 0.000, 0.000, 10:37:20.389, 1583739440389
131, -26569.29, -31989.86, -20997.09, -16622.34, -20395.94, -21450.68, -24210.36, -23125.58, 0.000, 0.000, 0.000, 10:37:20.389, 1583739440389
132, -27254.82, -32054.30, -21191.64, -16844.16, -21295.56, -21627.41, -24575.61, -23534.08, 0.000, 0.000, 0.000, 10:37:20.389, 1583739440389
133, -27577.02, -32076.67, -21308.41, -16963.28, -21768.68, -21700.50, -24710.66, -23767.08, 0.000, 0.000, 0.000, 10:37:20.389, 1583739440389
134, -27036.69, -32007.03, -21174.28, -16819.13, -21138.96, -21592.70, -24394.96, -23479.61, 0.000, 0.000, 0.000, 10:37:20.394, 1583739440394
135, -26359.01, -31941.71, -20990.79, -16657.30, -20301.46, -21485.46, -24065.09, -23081.44, 0.000, 0.000, 0.000, 10:37:20.395, 1583739440395
136, -26569.92, -31995.52, -21004.29, -16636.60, -20399.52, -21464.49, -24212.08, -23141.14, 0.000, 0.000, 0.000, 10:37:20.395, 1583739440395
137, -27251.56, -32051.86, -21189.21, -16841.53, -21287.44, -21630.95, -24570.98, -23541.97, 0.000, 0.000, 0.000, 10:37:20.395, 1583739440395
138, -27570.12, -32064.54, -21299.67, -16955.14, -21760.38, -21699.81, -24701.81, -23772.06, 0.000, 0.000, 0.000, 10:37:20.395, 1583739440395
139, -27030.50, -31997.24, -21171.77, -16828.25, -21138.54, -21601.42, -24391.79, -23489.69, 0.004, -0.020, 0.968, 10:37:20.395, 1583739440395
140, -26355.99, -31933.65, -20988.44, -16665.59, -20300.26, -21495.81, -24064.13, -23089.96, 0.000, 0.000, 0.000, 10:37:20.395, 1583739440395
141, -26553.16, -31977.66, -20993.14, -16630.41, -20387.58, -21461.32, -24200.66, -23133.16, 0.000, 0.000, 0.000, 10:37:20.395, 1583739440395
142, -27228.09, -32032.84, -21177.00, -16837.77, -21274.37, -21625.54, -24557.12, -23528.32, 0.000, 0.000, 0.000, 10:37:20.395, 1583739440395
143, -27553.13, -32049.27, -21292.23, -16948.59, -21752.38, -21693.84, -24694.23, -23756.33, 0.000, 0.000, 0.000, 10:37:20.395, 1583739440395
144, -27019.79, -31984.88, -21163.35, -16814.35, -21134.00, -21590.20, -24384.99, -23472.10, 0.000, 0.000, 0.000, 10:37:20.395, 1583739440395
145, -26345.58, -31923.52, -20980.49, -16654.20, -20292.72, -21483.76, -24057.38, -23071.85, 0.000, 0.000, 0.000, 10:37:20.396, 1583739440396
146, -26546.81, -31970.35, -20992.13, -16624.09, -20381.26, -21452.24, -24197.93, -23117.56, 0.000, 0.000, 0.000, 10:37:20.396, 1583739440396
147, -27234.17, -32034.14, -21182.93, -16838.11, -21275.62, -21622.76, -24561.30, -23520.85, 0.000, 0.000, 0.000, 10:37:20.396, 1583739440396
148, -27560.97, -32046.83, -21292.83, -16953.44, -21750.77, -21690.49, -24693.33, -23748.66, 0.000, 0.000, 0.000, 10:37:20.396, 1583739440396
149, -27030.05, -31984.72, -21156.57, -16814.57, -21125.84, -21583.22, -24379.63, -23464.03, 0.004, -0.028, 0.962, 10:37:20.396, 1583739440396
150, -26349.26, -31927.28, -20968.71, -16639.73, -20279.58, -21467.53, -24045.71, -23060.07, 0.000, 0.000, 0.000, 10:37:20.396, 1583739440396
151, -26547.37, -31977.50, -20979.48, -16604.24, -20364.76, -21434.41, -24186.13, -23106.49, 0.000, 0.000, 0.000, 10:37:20.396, 1583739440396
152, -27230.95, -32040.42, -21167.37, -16819.80, -21255.21, -21605.66, -24548.56, -23511.66, 0.000, 0.000, 0.000, 10:37:20.396, 1583739440396
153, -27561.96, -32059.29, -21281.07, -16940.14, -21739.22, -21677.99, -24684.86, -23747.95, 0.000, 0.000, 0.000, 10:37:20.396, 1583739440396
154, -27036.27, -31995.83, -21157.74, -16812.36, -21127.25, -21578.57, -24381.08, -23470.92, 0.000, 0.000, 0.000, 10:37:20.396, 1583739440396
155, -26354.76, -31932.44, -20974.52, -16650.91, -20287.18, -21471.55, -24051.50, -23072.61, 0.000, 0.000, 0.000, 10:37:20.396, 1583739440396
156, -26553.78, -31982.35, -20987.71, -16631.33, -20373.82, -21449.43, -24192.81, -23126.48, 0.000, 0.000, 0.000, 10:37:20.397, 1583739440397
157, -27235.53, -32041.13, -21170.54, -16840.94, -21261.09, -21618.47, -24552.70, -23527.27, 0.000, 0.000, 0.000, 10:37:20.397, 1583739440397
158, -27565.33, -32055.35, -21285.72, -16946.51, -21745.83, -21683.18, -24690.05, -23757.67, 0.000, 0.000, 0.000, 10:37:20.397, 1583739440397
159, -27035.08, -31990.04, -21161.96, -16806.25, -21135.67, -21576.52, -24384.68, -23476.06, 0.000, 0.000, 0.000, 10:37:20.397, 1583739440397
160, -26352.26, -31931.34, -20979.64, -16645.88, -20295.47, -21471.13, -24056.06, -23075.94, 0.004, -0.024, 0.962, 10:37:20.397, 1583739440397
161, -26545.47, -31977.99, -20984.62, -16616.51, -20373.41, -21442.18, -24193.44, -23120.69, 0.000, 0.000, 0.000, 10:37:20.397, 1583739440397
162, -27227.69, -32040.89, -21174.39, -16834.91, -21267.21, -21616.35, -24556.23, -23525.48, 0.000, 0.000, 0.000, 10:37:20.397, 1583739440397
163, -27561.85, -32060.60, -21301.26, -16962.49, -21764.61, -21697.37, -24702.79, -23769.00, 0.000, 0.000, 0.000, 10:37:20.397, 1583739440397
164, -27033.92, -31996.99, -21176.91, -16830.97, -21156.39, -21597.71, -24400.04, -23493.27, 0.000, 0.000, 0.000, 10:37:20.397, 1583739440397
165, -26351.86, -31931.16, -20993.74, -16666.51, -20311.50, -21491.36, -24069.30, -23092.17, 0.000, 0.000, 0.000, 10:37:20.397, 1583739440397
166, -26543.52, -31971.82, -20995.28, -16631.62, -20379.49, -21455.55, -24199.38, -23128.60, 0.000, 0.000, 0.000, 10:37:20.398, 1583739440398
167, -27228.18, -32031.97, -21174.90, -16839.56, -21260.71, -21621.11, -24555.00, -23525.52, 0.000, 0.000, 0.000, 10:37:20.398, 1583739440398
168, -27559.16, -32048.58, -21295.94, -16964.95, -21757.39, -21699.27, -24697.31, -23766.43, 0.000, 0.000, 0.000, 10:37:20.398, 1583739440398
169, -27037.32, -31988.90, -21175.19, -16832.36, -21153.44, -21598.58, -24395.61, -23490.59, 0.000, 0.000, 0.000, 10:37:20.398, 1583739440398
170, -26355.97, -31930.96, -20990.28, -16662.82, -20304.68, -21487.49, -24060.56, -23085.73, 0.002, -0.020, 0.964, 10:37:20.398, 1583739440398
171, -26543.16, -31976.85, -20986.59, -16629.12, -20366.95, -21452.78, -24190.55, -23122.88, 0.000, 0.000, 0.000, 10:37:20.398, 1583739440398
172, -27223.91, -32034.72, -21169.02, -16833.39, -21251.86, -21616.84, -24552.65, -23519.71, 0.000, 0.000, 0.000, 10:37:20.398, 1583739440398
173, -27553.80, -32043.77, -21282.03, -16943.36, -21746.08, -21683.11, -24690.05, -23750.09, 0.000, 0.000, 0.000, 10:37:20.398, 1583739440398
174, -27032.80, -31978.57, -21157.51, -16812.51, -21138.49, -21580.72, -24386.49, -23473.18, 0.000, 0.000, 0.000, 10:37:20.398, 1583739440398
175, -26347.72, -31917.20, -20977.04, -16657.41, -20293.60, -21477.70, -24056.38, -23073.30, 0.000, 0.000, 0.000, 10:37:20.398, 1583739440398
176, -26529.17, -31963.04, -20981.25, -16624.31, -20362.10, -21443.62, -24187.56, -23110.56, 0.000, 0.000, 0.000, 10:37:20.398, 1583739440398
177, -27208.71, -32020.42, -21158.43, -16821.30, -21240.62, -21602.54, -24542.57, -23504.67, 0.000, 0.000, 0.000, 10:37:20.399, 1583739440399
178, -27552.97, -32043.62, -21278.79, -16941.82, -21740.92, -21677.64, -24685.71, -23747.07, 0.000, 0.000, 0.000, 10:37:20.399, 1583739440399
179, -27040.89, -31987.45, -21160.55, -16821.65, -21142.54, -21583.31, -24387.47, -23480.89, 0.000, 0.000, 0.000, 10:37:20.399, 1583739440399
180, -26353.73, -31927.10, -20974.61, -16657.90, -20291.43, -21476.27, -24051.39, -23078.85, 0.002, -0.018, 0.966, 10:37:20.399, 1583739440399
181, -26533.49, -31969.86, -20979.37, -16620.94, -20354.71, -21441.63, -24180.14, -23116.49, 0.000, 0.000, 0.000, 10:37:20.399, 1583739440399
182, -27216.73, -32033.40, -21161.89, -16827.40, -21240.68, -21606.22, -24539.51, -23514.86, 0.000, 0.000, 0.000, 10:37:20.399, 1583739440399
183, -27560.30, -32052.38, -21283.55, -16956.73, -21746.77, -21685.97, -24688.87, -23759.14, 0.000, 0.000, 0.000, 10:37:20.399, 1583739440399
184, -27045.74, -31991.09, -21166.23, -16835.51, -21154.34, -21591.85, -24393.78, -23491.57, 0.000, 0.000, 0.000, 10:37:20.399, 1583739440399
185, -26354.96, -31924.79, -20977.02, -16658.82, -20302.74, -21477.79, -24057.79, -23082.06, 0.000, 0.000, 0.000, 10:37:20.399, 1583739440399
186, -26529.84, -31965.18, -20980.40, -16617.11, -20364.56, -21439.81, -24188.43, -23114.34, 0.000, 0.000, 0.000, 10:37:20.399, 1583739440399
187, -27214.03, -32031.37, -21171.24, -16830.66, -21254.43, -21613.00, -24556.05, -23519.15, 0.000, 0.000, 0.000, 10:37:20.399, 1583739440399
188, -27559.52, -32053.45, -21294.75, -16949.30, -21761.17, -21690.65, -24703.33, -23761.78, 0.000, 0.000, 0.000, 10:37:20.400, 1583739440400
189, -27046.44, -31992.25, -21176.20, -16824.13, -21166.23, -21594.18, -24406.25, -23492.51, 0.000, 0.000, 0.000, 10:37:20.400, 1583739440400
190, -26355.57, -31926.54, -20994.26, -16666.24, -20319.97, -21492.05, -24071.44, -23091.34, 0.004, -0.018, 0.972, 10:37:20.400, 1583739440400
191, -26529.89, -31969.45, -21000.07, -16637.83, -20382.38, -21464.25, -24202.42, -23129.90, 0.000, 0.000, 0.000, 10:37:20.400, 1583739440400
192, -27213.27, -32030.92, -21183.26, -16837.95, -21264.49, -21629.27, -24563.58, -23527.94, 0.000, 0.000, 0.000, 10:37:20.400, 1583739440400
193, -27558.04, -32048.64, -21303.54, -16960.26, -21773.06, -21707.68, -24710.41, -23770.14, 0.000, 0.000, 0.000, 10:37:20.400, 1583739440400
194, -27047.67, -31988.54, -21185.61, -16840.72, -21183.13, -21614.52, -24414.74, -23505.45, 0.000, 0.000, 0.000, 10:37:20.400, 1583739440400
195, -26356.86, -31923.36, -20998.12, -16678.29, -20324.31, -21506.51, -24074.10, -23099.39, 0.000, 0.000, 0.000, 10:37:20.400, 1583739440400
196, -26530.42, -31963.13, -20999.62, -16637.90, -20373.37, -21468.43, -24200.30, -23127.97, 0.000, 0.000, 0.000, 10:37:20.400, 1583739440400
197, -27213.45, -32024.86, -21178.30, -16833.59, -21252.69, -21624.73, -24559.98, -23520.49, 0.000, 0.000, 0.000, 10:37:20.400, 1583739440400
198, -27562.25, -32049.40, -21296.09, -16956.84, -21760.16, -21699.47, -24706.63, -23763.68, 0.000, 0.000, 0.000, 10:37:20.400, 1583739440400
199, -27051.40, -31989.59, -21173.34, -16831.47, -21166.81, -21598.96, -24406.72, -23494.16, 0.000, 0.000, 0.000, 10:37:20.400, 1583739440400
200, -26357.67, -31922.40, -20979.99, -16659.58, -20305.89, -21485.08, -24063.15, -23082.15, 0.004, -0.022, 0.970, 10:37:20.401, 1583739440401
201, -26531.54, -31967.26, -20976.82, -16613.54, -20352.09, -21441.92, -24183.89, -23108.78, 0.000, 0.000, 0.000, 10:37:20.401, 1583739440401
202, -27215.44, -32027.93, -21160.15, -16820.29, -21232.86, -21606.45, -24542.39, -23505.54, 0.000, 0.000, 0.000, 10:37:20.401, 1583739440401
203, -27567.10, -32050.48, -21288.34, -16952.05, -21749.34, -21690.29, -24693.74, -23756.26, 0.000, 0.000, 0.000, 10:37:20.401, 1583739440401
204, -27057.37, -31988.41, -21175.84, -16830.51, -21166.88, -21595.00, -24401.71, -23494.90, 0.000, 0.000, 0.000, 10:37:20.401, 1583739440401
205, -26360.98, -31923.14, -20980.75, -16655.98, -20305.29, -21480.94, -24057.99, -23084.37, 0.000, 0.000, 0.000, 10:37:20.401, 1583739440401
206, -26532.01, -31968.65, -20982.05, -16622.43, -20354.39, -21448.44, -24183.11, -23116.89, 0.000, 0.000, 0.000, 10:37:20.401, 1583739440401
207, -27215.66, -32033.69, -21167.59, -16827.78, -21240.50, -21613.85, -24546.55, -23516.16, 0.000, 0.000, 0.000, 10:37:20.401, 1583739440401
208, -27565.73, -32052.78, -21291.22, -16951.32, -21757.16, -21691.67, -24697.20, -23763.55, 0.000, 0.000, 0.000, 10:37:20.401, 1583739440401
209, -27061.97, -31990.98, -21171.46, -16829.68, -21175.24, -21597.10, -24405.29, -23503.89, 0.000, 0.000, 0.000, 10:37:20.401, 1583739440401
210, -26363.19, -31923.59, -20980.73, -16659.69, -20315.46, -21485.75, -24064.67, -23092.99, 0.008, -0.020, 0.976, 10:37:20.401, 1583739440401
211, -26527.96, -31966.66, -20983.24, -16620.13, -20358.06, -21448.67, -24190.00, -23118.65, 0.000, 0.000, 0.000, 10:37:20.402, 1583739440402
212, -27214.72, -32036.73, -21175.73, -16840.70, -21247.57, -21624.91, -24559.49, -23524.56, 0.000, 0.000, 0.000, 10:37:20.402, 1583739440402
213, -27568.48, -32058.66, -21302.37, -16967.95, -21773.08, -21706.38, -24714.30, -23775.91, 0.000, 0.000, 0.000, 10:37:20.402, 1583739440402
214, -27066.20, -31996.70, -21180.94, -16830.82, -21189.25, -21602.22, -24418.36, -23510.28, 0.000, 0.000, 0.000, 10:37:20.402, 1583739440402
215, -26366.83, -31928.50, -20991.13, -16660.99, -20328.60, -21489.68, -24075.62, -23098.49, 0.000, 0.000, 0.000, 10:37:20.402, 1583739440402
216, -26530.85, -31974.17, -20991.66, -16623.77, -20371.20, -21455.06, -24199.27, -23127.26, 0.000, 0.000, 0.000, 10:37:20.402, 1583739440402
217, -27212.18, -32034.43, -21174.77, -16829.12, -21252.02, -21622.16, -24561.30, -23525.21, 0.000, 0.000, 0.000, 10:37:20.402, 1583739440402
218, -27564.53, -32049.16, -21298.24, -16957.64, -21772.65, -21704.84, -24714.12, -23775.44, 0.000, 0.000, 0.000, 10:37:20.402, 1583739440402
219, -27070.06, -31992.39, -21186.19, -16842.96, -21196.65, -21616.46, -24426.59, -23520.96, 0.000, 0.000, 0.000, 10:37:20.402, 1583739440402
220, -26372.17, -31929.96, -20994.43, -16679.92, -20332.46, -21508.26, -24081.30, -23112.20, 0.002, -0.020, 0.972, 10:37:20.402, 1583739440402
221, -26523.79, -31968.49, -20983.35, -16625.34, -20360.56, -21458.84, -24191.47, -23126.10, 0.000, 0.000, 0.000, 10:37:20.402, 1583739440402
222, -27203.28, -32029.51, -21165.92, -16826.06, -21239.48, -21619.63, -24550.22, -23519.71, 0.000, 0.000, 0.000, 10:37:20.402, 1583739440402
223, -27562.56, -32053.29, -21290.77, -16951.09, -21762.57, -21700.28, -24703.01, -23770.28, 0.000, 0.000, 0.000, 10:37:20.403, 1583739440403
224, -27067.49, -31993.68, -21169.36, -16824.36, -21182.61, -21600.61, -24409.04, -23508.71, 0.000, 0.000, 0.000, 10:37:20.403, 1583739440403
225, -26368.87, -31925.26, -20981.40, -16656.12, -20321.74, -21491.11, -24066.17, -23098.52, 0.000, 0.000, 0.000, 10:37:20.403, 1583739440403
226, -26521.48, -31962.90, -20981.40, -16618.54, -20353.81, -21454.54, -24183.63, -23122.30, 0.000, 0.000, 0.000, 10:37:20.403, 1583739440403
227, -27202.23, -32024.82, -21167.66, -16831.29, -21234.42, -21624.33, -24548.29, -23522.57, 0.000, 0.000, 0.000, 10:37:20.403, 1583739440403
228, -27561.98, -32044.58, -21293.30, -16961.49, -21765.32, -21707.41, -24704.38, -23774.48, 0.000, 0.000, 0.000, 10:37:20.403, 1583739440403
229, -27070.02, -31989.86, -21177.43, -16837.14, -21192.04, -21609.02, -24415.50, -23514.15, 0.000, 0.000, 0.000, 10:37:20.403, 1583739440403
230, -26368.62, -31923.97, -20987.19, -16665.33, -20326.21, -21492.72, -24069.10, -23095.92, 0.002, -0.022, 0.968, 10:37:20.403, 1583739440403
231, -26522.38, -31970.44, -20986.10, -16622.46, -20355.67, -21450.68, -24185.84, -23115.84, 0.000, 0.000, 0.000, 10:37:20.404, 1583739440404
232, -27202.77, -32035.01, -21168.87, -16825.97, -21234.04, -21613.51, -24546.84, -23512.25, 0.000, 0.000, 0.000, 10:37:20.404, 1583739440404
233, -27565.53, -32051.82, -21289.70, -16957.13, -21762.48, -21696.73, -24700.89, -23768.29, 0.000, 0.000, 0.000, 10:37:20.404, 1583739440404
234, -27070.42, -31988.77, -21175.19, -16839.80, -21192.20, -21602.65, -24411.48, -23514.48, 0.000, 0.000, 0.000, 10:37:20.404, 1583739440404
235, -26374.25, -31926.25, -20989.67, -16673.60, -20329.22, -21495.07, -24069.90, -23107.28, 0.000, 0.000, 0.000, 10:37:20.404, 1583739440404
236, -26524.93, -31971.60, -20982.23, -16625.38, -20351.91, -21453.43, -24182.69, -23124.13, 0.000, 0.000, 0.000, 10:37:20.404, 1583739440404
237, -27205.22, -32035.30, -21162.23, -16827.00, -21225.89, -21617.06, -24544.54, -23518.44, 0.000, 0.000, 0.000, 10:37:20.404, 1583739440404
238, -27570.74, -32056.98, -21286.28, -16957.53, -21758.86, -21700.10, -24703.95, -23774.23, 0.000, 0.000, 0.000, 10:37:20.404, 1583739440404
239, -27082.24, -31999.38, -21171.68, -16835.45, -21191.67, -21602.98, -24417.47, -23517.95, 0.000, 0.000, 0.000, 10:37:20.404, 1583739440404
240, -26377.00, -31930.99, -20978.83, -16662.00, -20324.02, -21487.98, -24068.92, -23100.68, 0.006, -0.024, 0.970, 10:37:20.404, 1583739440404
241, -26525.17, -31971.96, -20973.71, -16612.51, -20346.21, -21443.53, -24179.87, -23114.88, 0.000, 0.000, 0.000, 10:37:20.404, 1583739440404
242, -27203.95, -32037.27, -21159.32, -16824.98, -21222.96, -21611.74, -24541.86, -23513.61, 0.000, 0.000, 0.000, 10:37:20.405, 1583739440405
243, -27568.86, -32058.93, -21294.60, -16966.11, -21767.40, -21704.17, -24705.65, -23776.94, 0.000, 0.000, 0.000, 10:37:20.868, 1583739440868
244, -27085.80, -32000.41, -21179.57, -16837.99, -21203.20, -21606.36, -24422.12, -23523.62, 0.000, 0.000, 0.000, 10:37:20.869, 1583739440869
245, -26385.12, -31932.01, -20996.15, -16672.57, -20339.77, -21501.37, -24080.92, -23116.38, 0.000, 0.000, 0.000, 10:37:20.869, 1583739440869
246, -26524.72, -31969.34, -20995.60, -16632.69, -20363.78, -21462.64, -24195.40, -23133.52, 0.000, 0.000, 0.000, 10:37:20.869, 1583739440869
247, -27204.33, -32035.66, -21178.01, -16837.28, -21239.50, -21629.94, -24558.11, -23530.51, 0.000, 0.000, 0.000, 10:37:20.869, 1583739440869
248, -27570.81, -32060.56, -21309.86, -16974.58, -21783.52, -21719.46, -24721.63, -23792.45, 0.000, 0.000, 0.000, 10:37:20.869, 1583739440869
249, -27080.26, -31996.45, -21186.01, -16836.36, -21212.77, -21610.98, -24429.27, -23529.32, 0.000, 0.000, 0.000, 10:37:20.869, 1583739440869
250, -26370.45, -31919.45, -20984.73, -16659.00, -20335.53, -21490.96, -24071.69, -23105.73, 0.000, 0.000, 0.000, 10:37:20.870, 1583739440870
251, -26515.70, -31963.60, -20987.35, -16623.60, -20356.22, -21456.67, -24187.45, -23124.35, 0.004, -0.022, 0.980, 10:37:20.870, 1583739440870
252, -27191.03, -32024.93, -21172.42, -16829.50, -21232.05, -21619.97, -24549.84, -23516.13, 0.000, 0.000, 0.000, 10:37:20.875, 1583739440875
253, -27557.26, -32041.13, -21295.98, -16961.20, -21768.21, -21702.13, -24706.32, -23768.67, 0.000, 0.000, 0.000, 10:37:20.876, 1583739440876
254, -27074.58, -31979.73, -21176.73, -16833.77, -21203.22, -21602.38, -24418.47, -23514.28, 0.000, 0.000, 0.000, 10:37:20.876, 1583739440876
255, -26370.79, -31911.29, -20990.57, -16667.11, -20334.45, -21493.75, -24073.05, -23100.84, 0.000, 0.000, 0.000, 10:37:20.876, 1583739440876
0, -26514.15, -31959.80, -20989.27, -16629.36, -20350.73, -21456.85, -24186.40, -23117.29, 0.000, 0.000, 0.000, 10:37:20.876, 1583739440876
1, -27190.94, -32025.53, -21162.29, -16830.37, -21217.64, -21616.04, -24542.64, -23508.85, 0.000, 0.000, 0.000, 10:37:20.876, 1583739440876
2, -27558.22, -32042.88, -21280.20, -16954.47, -21751.49, -21694.65, -24695.26, -23763.61, 0.000, 0.000, 0.000, 10:37:20.876, 1583739440876
3, -27079.90, -31983.51, -21165.29, -16826.04, -21189.21, -21593.97, -24408.69, -23510.70, 0.000, 0.000, 0.000, 10:37:20.877, 1583739440877
4, -26372.67, -31912.95, -20972.22, -16650.26, -20317.09, -21477.81, -24057.61, -23094.65, 0.000, 0.000, 0.000, 10:37:20.877, 1583739440877
5, -26510.15, -31955.42, -20962.45, -16598.20, -20323.86, -21431.25, -24165.72, -23103.86, 0.002, -0.018, 0.972, 10:37:20.877, 1583739440877
6, -27190.90, -32023.72, -21142.27, -16802.83, -21197.43, -21594.27, -24527.66, -23499.15, 0.000, 0.000, 0.000, 10:37:20.877, 1583739440877
7, -27568.15, -32048.67, -21276.98, -16949.51, -21747.78, -21689.01, -24696.80, -23767.66, 0.000, 0.000, 0.000, 10:37:20.878, 1583739440878
8, -27088.66, -31991.40, -21170.01, -16837.01, -21195.58, -21597.82, -24418.74, -23522.73, 0.000, 0.000, 0.000, 10:37:20.878, 1583739440878
9, -26383.15, -31927.05, -20984.96, -16670.69, -20327.70, -21492.30, -24073.48, -23113.25, 0.000, 0.000, 0.000, 10:37:20.879, 1583739440879
10, -26517.86, -31967.06, -20970.36, -16614.68, -20330.41, -21445.43, -24177.63, -23121.09, 0.000, 0.000, 0.000, 10:37:20.879, 1583739440879
11, -27194.34, -32029.51, -21148.37, -16808.11, -21201.90, -21603.70, -24537.92, -23511.29, 0.000, 0.000, 0.000, 10:37:20.879, 1583739440879
12, -27564.44, -32048.96, -21283.60, -16944.23, -21758.84, -21691.85, -24703.82, -23772.46, 0.000, 0.000, 0.000, 10:37:20.879, 1583739440879
13, -27087.72, -31990.20, -21178.70, -16830.10, -21212.05, -21601.22, -24428.58, -23528.56, 0.000, 0.000, 0.000, 10:37:20.879, 1583739440879
14, -26372.76, -31918.60, -20988.06, -16661.01, -20339.84, -21491.22, -24078.17, -23113.47, 0.000, 0.000, 0.000, 10:37:20.879, 1583739440879
15, -26509.21, -31961.67, -20985.78, -16618.72, -20348.04, -21453.03, -24188.56, -23125.03, 0.002, -0.018, 0.972, 10:37:20.880, 1583739440880
16, -27188.35, -32025.71, -21166.86, -16824.98, -21220.19, -21617.71, -24549.59, -23517.10, 0.000, 0.000, 0.000, 10:37:20.880, 1583739440880
17, -27567.03, -32050.37, -21300.32, -16970.76, -21776.46, -21711.86, -24717.54, -23782.70, 0.000, 0.000, 0.000, 10:37:20.880, 1583739440880
18, -27092.37, -31992.61, -21190.26, -16848.92, -21227.14, -21616.60, -24441.14, -23536.07, 0.000, 0.000, 0.000, 10:37:20.880, 1583739440880
19, -26375.24, -31921.20, -20998.10, -16677.35, -20351.62, -21502.47, -24086.19, -23116.33, 0.000, 0.000, 0.000, 10:37:20.880, 1583739440880
20, -26504.09, -31960.00, -20993.45, -16638.06, -20353.65, -21462.19, -24189.24, -23125.47, 0.000, 0.000, 0.000, 10:37:20.881, 1583739440881
21, -27179.23, -32019.30, -21175.84, -16841.66, -21224.81, -21624.84, -24547.33, -23515.80, 0.000, 0.000, 0.000, 10:37:20.881, 1583739440881
22, -27556.32, -32038.81, -21297.55, -16970.99, -21773.10, -21708.79, -24707.48, -23775.26, 0.000, 0.000, 0.000, 10:37:20.881, 1583739440881
23, -27081.51, -31978.71, -21176.47, -16834.60, -21214.31, -21601.15, -24421.65, -23519.69, 0.000, 0.000, 0.000, 10:37:20.881, 1583739440881
24, -26368.62, -31911.58, -20979.57, -16660.74, -20331.53, -21486.31, -24066.95, -23099.95, 0.000, 0.000, 0.000, 10:37:20.881, 1583739440881
25, -26500.58, -31958.63, -20969.22, -16620.35, -20329.29, -21446.77, -24172.70, -23110.27, 0.002, -0.020, 0.974, 10:37:20.882, 1583739440882
26, -27178.74, -32023.50, -21146.02, -16816.13, -21193.59, -21602.89, -24529.54, -23499.97, 0.000, 0.000, 0.000, 10:37:20.882, 1583739440882
27, -27559.86, -32047.17, -21275.71, -16950.09, -21749.39, -21688.95, -24695.26, -23762.83, 0.000, 0.000, 0.000, 10:37:20.882, 1583739440882
28, -27090.58, -31989.05, -21163.12, -16825.45, -21199.13, -21589.01, -24414.90, -23514.91, 0.000, 0.000, 0.000, 10:37:20.882, 1583739440882
29, -26380.69, -31920.32, -20973.67, -16657.82, -20322.32, -21478.82, -24063.91, -23099.39, 0.000, 0.000, 0.000, 10:37:20.882, 1583739440882
30, -26508.03, -31960.22, -20968.15, -16615.88, -20321.18, -21439.50, -24171.49, -23108.87, 0.000, 0.000, 0.000, 10:37:20.883, 1583739440883
31, -27187.34, -32029.42, -21156.78, -16825.95, -21200.81, -21607.41, -24538.01, -23506.77, 0.000, 0.000, 0.000, 10:37:20.883, 1583739440883
32, -27564.86, -32046.72, -21292.12, -16964.68, -21766.24, -21699.63, -24706.92, -23775.35, 0.000, 0.000, 0.000, 10:37:20.883, 1583739440883
33, -27094.76, -31990.35, -21183.08, -16843.76, -21224.95, -21605.62, -24430.88, -23535.40, 0.000, 0.000, 0.000, 10:37:20.883, 1583739440883
34, -26380.80, -31922.78, -20991.66, -16671.14, -20350.19, -21495.05, -24080.23, -23119.35, 0.000, 0.000, 0.000, 10:37:20.896, 1583739440896
35, -26501.88, -31964.20, -20977.96, -16614.59, -20341.90, -21447.04, -24182.17, -23120.62, 0.002, -0.022, 0.970, 10:37:20.897, 1583739440897
36, -27180.01, -32032.53, -21157.42, -16813.79, -21211.34, -21605.62, -24541.30, -23511.38, 0.000, 0.000, 0.000, 10:37:20.897, 1583739440897
37, -27566.47, -32057.79, -21295.24, -16962.67, -21778.06, -21702.13, -24711.33, -23783.02, 0.000, 0.000, 0.000, 10:37:20.897, 1583739440897
38, -27100.42, -31998.15, -21193.14, -16852.92, -21239.48, -21612.50, -24439.89, -23543.63, 0.000, 0.000, 0.000, 10:37:20.897, 1583739440897
39, -26379.35, -31922.22, -20994.30, -16673.10, -20354.55, -21494.35, -24081.23, -23118.88, 0.000, 0.000, 0.000, 10:37:20.897, 1583739440897
40, -26498.60, -31962.37, -20977.38, -16617.05, -20339.37, -21444.60, -24178.26, -23117.98, 0.000, 0.000, 0.000, 10:37:20.897, 1583739440897
41, -27179.85, -32029.22, -21156.46, -16819.93, -21205.75, -21607.34, -24538.93, -23511.62, 0.000, 0.000, 0.000, 10:37:20.897, 1583739440897
42, -27566.67, -32055.04, -21297.97, -16966.13, -21776.28, -21707.03, -24713.76, -23787.42, 0.000, 0.000, 0.000, 10:37:20.897, 1583739440897
43, -27099.77, -31998.76, -21191.84, -16848.61, -21235.97, -21612.84, -24440.29, -23546.47, 0.000, 0.000, 0.000, 10:37:20.898, 1583739440898
44, -26383.06, -31931.63, -20990.21, -16678.13, -20350.46, -21501.06, -24081.57, -23126.59, 0.000, 0.000, 0.000, 10:37:20.898, 1583739440898
45, -26498.01, -31968.69, -20970.94, -16618.43, -20328.75, -21449.00, -24173.79, -23121.67, 0.006, -0.016, 0.968, 10:37:20.898, 1583739440898
46, -27173.82, -32034.47, -21156.08, -16818.68, -21195.64, -21608.93, -24534.50, -23511.78, 0.000, 0.000, 0.000, 10:37:20.898, 1583739440898
47, -27558.09, -32055.02, -21292.49, -16966.29, -21767.29, -21705.53, -24707.06, -23783.42, 0.000, 0.000, 0.000, 10:37:20.898, 1583739440898
48, -27097.27, -31997.24, -21185.90, -16843.92, -21233.24, -21608.97, -24435.13, -23542.40, 0.000, 0.000, 0.000, 10:37:20.898, 1583739440898
49, -26381.47, -31929.40, -20992.11, -16666.04, -20353.05, -21493.01, -24080.85, -23120.06, 0.000, 0.000, 0.000, 10:37:20.898, 1583739440898
50, -26500.47, -31966.26, -20980.73, -16618.50, -20338.01, -21449.69, -24181.50, -23121.20, 0.000, 0.000, 0.000, 10:37:20.898, 1583739440898
51, -27171.38, -32025.56, -21156.60, -16819.40, -21200.27, -21607.95, -24537.83, -23508.20, 0.000, 0.000, 0.000, 10:37:20.899, 1583739440899
52, -27556.77, -32051.19, -21290.46, -16961.46, -21768.61, -21701.04, -24708.67, -23778.43, 0.000, 0.000, 0.000, 10:37:20.899, 1583739440899
53, -27099.41, -31994.33, -21186.32, -16847.80, -21239.21, -21610.25, -24438.88, -23542.96, 0.000, 0.000, 0.000, 10:37:20.899, 1583739440899
54, -26380.22, -31927.39, -20997.25, -16677.24, -20362.44, -21499.96, -24087.09, -23126.05, 0.000, 0.000, 0.000, 10:37:20.899, 1583739440899
55, -26491.20, -31964.45, -20980.38, -16616.89, -20336.78, -21447.04, -24180.16, -23117.49, 0.002, -0.020, 0.968, 10:37:20.899, 1583739440899
56, -27169.15, -32025.56, -21156.98, -16815.87, -21198.30, -21605.06, -24537.21, -23504.63, 0.000, 0.000, 0.000, 10:37:20.899, 1583739440899
57, -27560.30, -32048.33, -21287.09, -16951.47, -21767.65, -21693.35, -24706.10, -23771.44, 0.000, 0.000, 0.000, 10:37:20.899, 1583739440899
58, -27104.71, -31996.88, -21179.08, -16829.97, -21238.56, -21597.08, -24434.19, -23533.53, 0.000, 0.000, 0.000, 10:37:20.900, 1583739440900
59, -26382.48, -31930.16, -20986.57, -16663.22, -20355.15, -21487.96, -24077.68, -23115.32, 0.000, 0.000, 0.000, 10:37:20.900, 1583739440900
60, -26493.43, -31966.73, -20971.19, -16610.94, -20329.25, -21440.64, -24171.76, -23111.46, 0.000, 0.000, 0.000, 10:37:20.900, 1583739440900
61, -27176.63, -32036.35, -21152.82, -16811.21, -21190.84, -21600.35, -24533.05, -23503.46, 0.000, 0.000, 0.000, 10:37:20.900, 1583739440900
62, -27569.69, -32063.15, -21285.74, -16956.86, -21765.41, -21695.25, -24705.14, -23777.29, 0.000, 0.000, 0.000, 10:37:20.900, 1583739440900
63, -27112.02, -32001.95, -21178.88, -16843.36, -21238.18, -21601.98, -24431.06, -23542.09, 0.000, 0.000, 0.000, 10:37:20.900, 1583739440900
64, -26384.96, -31927.14, -20988.09, -16673.98, -20354.30, -21491.07, -24073.57, -23120.80, 0.000, 0.000, 0.000, 10:37:20.901, 1583739440901
65, -26489.99, -31967.15, -20969.38, -16620.47, -20326.65, -21443.86, -24167.67, -23114.70, 0.008, -0.018, 0.968, 10:37:20.901, 1583739440901
66, -27169.91, -32034.21, -21147.03, -16816.27, -21191.15, -21604.86, -24529.68, -23506.44, 0.000, 0.000, 0.000, 10:37:20.901, 1583739440901
67, -27565.15, -32055.93, -21288.14, -16961.80, -21771.85, -21704.41, -24708.42, -23782.63, 0.000, 0.000, 0.000, 10:37:20.901, 1583739440901
68, -27110.16, -31997.28, -21185.99, -16850.80, -21251.41, -21614.67, -24440.56, -23551.54, 0.000, 0.000, 0.000, 10:37:20.901, 1583739440901
69, -26387.44, -31927.95, -20990.54, -16674.27, -20365.57, -21500.90, -24083.80, -23128.85, 0.000, 0.000, 0.000, 10:37:20.901, 1583739440901
70, -26495.33, -31968.74, -20981.85, -16622.50, -20337.79, -21454.97, -24180.94, -23124.02, 0.000, 0.000, 0.000, 10:37:20.901, 1583739440901
71, -27173.04, -32033.20, -21164.02, -16828.34, -21198.93, -21618.05, -24541.07, -23515.85, 0.000, 0.000, 0.000, 10:37:20.902, 1583739440902
72, -27566.56, -32059.15, -21297.17, -16977.15, -21776.81, -21714.65, -24714.01, -23791.04, 0.000, 0.000, 0.000, 10:37:20.902, 1583739440902
73, -27113.69, -32002.49, -21191.06, -16857.71, -21256.73, -21618.54, -24444.20, -23556.19, 0.000, 0.000, 0.000, 10:37:20.902, 1583739440902
74, -26384.24, -31923.41, -20988.64, -16671.32, -20365.84, -21497.46, -24080.00, -23125.92, 0.000, 0.000, 0.000, 10:37:20.902, 1583739440902
75, -26486.66, -31962.30, -20976.29, -16627.28, -20332.42, -21454.48, -24172.94, -23119.66, 0.000, 0.000, 0.000, 10:37:20.902, 1583739440902
76, -27167.67, -32032.96, -21159.19, -16834.78, -21195.69, -21618.52, -24535.82, -23512.29, 0.004, -0.016, 0.966, 10:37:20.902, 1583739440902
77, -27562.92, -32054.95, -21288.94, -16957.02, -21774.53, -21700.35, -24709.63, -23777.07, 0.000, 0.000, 0.000, 10:37:20.902, 1583739440902
78, -27108.80, -31994.11, -21180.00, -16827.44, -21248.37, -21595.32, -24439.24, -23536.21, 0.000, 0.000, 0.000, 10:37:20.903, 1583739440903
79, -26386.99, -31926.54, -20991.55, -16659.40, -20365.03, -21485.59, -24081.25, -23116.04, 0.000, 0.000, 0.000, 10:37:20.903, 1583739440903
80, -26488.78, -31968.34, -20979.14, -16612.46, -20330.12, -21444.64, -24174.64, -23111.57, 0.000, 0.000, 0.000, 10:37:20.903, 1583739440903
81, -27157.68, -32024.88, -21155.23, -16811.80, -21186.03, -21602.33, -24533.65, -23497.96, 0.000, 0.000, 0.000, 10:37:20.903, 1583739440903
82, -27558.56, -32046.34, -21297.88, -16968.30, -21775.65, -21706.25, -24715.04, -23780.96, 0.000, 0.000, 0.000, 10:37:20.903, 1583739440903
83, -27112.73, -31991.11, -21195.31, -16853.01, -21261.11, -21612.21, -24447.31, -23549.04, 0.000, 0.000, 0.000, 10:37:20.903, 1583739440903
84, -26384.85, -31919.99, -20994.70, -16669.06, -20370.13, -21492.23, -24083.85, -23119.93, 0.000, 0.000, 0.000, 10:37:20.903, 1583739440903
85, -26480.31, -31955.82, -20975.41, -16607.95, -20329.09, -21439.88, -24169.07, -23105.27, 0.000, 0.000, 0.000, 10:37:20.904, 1583739440904
86, -27153.19, -32021.64, -21151.99, -16803.39, -21185.72, -21596.05, -24524.60, -23490.50, 0.006, -0.020, 0.972, 10:37:20.904, 1583739440904
87, -27557.06, -32046.68, -21292.34, -16957.69, -21774.80, -21698.31, -24705.56, -23773.85, 0.000, 0.000, 0.000, 10:37:20.904, 1583739440904
88, -27113.40, -31990.26, -21189.99, -16849.01, -21262.57, -21608.28, -24441.68, -23547.92, 0.000, 0.000, 0.000, 10:37:20.904, 1583739440904
89, -26385.00, -31921.35, -21000.29, -16684.88, -20379.87, -21500.46, -24084.41, -23128.94, 0.000, 0.000, 0.000, 10:37:20.905, 1583739440905
90, -26482.41, -31961.61, -20976.69, -16627.87, -20334.10, -21451.37, -24169.57, -23117.71, 0.000, 0.000, 0.000, 10:37:20.905, 1583739440905
91, -27159.67, -32025.29, -21147.77, -16817.01, -21186.37, -21607.14, -24527.33, -23505.23, 0.000, 0.000, 0.000, 10:37:20.905, 1583739440905
92, -27561.58, -32052.15, -21289.77, -16967.30, -21779.96, -21709.06, -24710.05, -23788.18, 0.000, 0.000, 0.000, 10:37:20.905, 1583739440905
93, -27121.40, -32000.30, -21193.19, -16857.91, -21273.52, -21620.71, -24451.33, -23566.54, 0.000, 0.000, 0.000, 10:37:20.905, 1583739440905
94, -26392.36, -31929.60, -21003.29, -16685.46, -20384.86, -21510.92, -24092.86, -23145.39, 0.000, 0.000, 0.000, 10:37:20.905, 1583739440905
95, -26487.02, -31971.29, -20987.15, -16631.31, -20340.58, -21464.27, -24182.37, -23133.72, 0.000, 0.000, 0.000, 10:37:20.905, 1583739440905
96, -27161.04, -32035.19, -21160.53, -16827.00, -21194.97, -21621.42, -24542.66, -23521.46, 0.008, -0.018, 0.974, 10:37:20.905, 1583739440905
97, -27564.19, -32058.08, -21298.89, -16976.93, -21788.90, -21722.50, -24726.55, -23802.35, 0.000, 0.000, 0.000, 10:37:20.906, 1583739440906
98, -27126.59, -32004.32, -21200.36, -16861.69, -21285.48, -21630.72, -24467.29, -23573.98, 0.000, 0.000, 0.000, 10:37:20.906, 1583739440906
99, -26394.93, -31929.06, -21006.21, -16685.96, -20398.36, -21516.66, -24105.46, -23147.00, 0.000, 0.000, 0.000, 10:37:20.906, 1583739440906
100, -26476.40, -31958.61, -20982.39, -16624.02, -20343.48, -21459.42, -24181.99, -23125.54, 0.000, 0.000, 0.000, 10:37:20.906, 1583739440906
101, -27145.72, -32023.52, -21154.83, -16812.82, -21192.49, -21610.58, -24537.48, -23506.79, 0.000, 0.000, 0.000, 10:37:20.906, 1583739440906
102, -27550.02, -32042.48, -21290.62, -16956.64, -21784.61, -21705.76, -24717.38, -23785.25, 0.000, 0.000, 0.000, 10:37:20.906, 1583739440906
103, -27121.36, -31993.82, -21193.57, -16844.43, -21280.58, -21613.62, -24459.76, -23563.07, 0.000, 0.000, 0.000, 10:37:20.906, 1583739440906
104, -26391.04, -31922.11, -20996.13, -16670.76, -20390.06, -21499.81, -24096.05, -23137.32, 0.000, 0.000, 0.000, 10:37:20.907, 1583739440907
105, -26477.41, -31958.34, -20976.37, -16616.20, -20334.45, -21450.16, -24176.79, -23119.46, 0.000, 0.000, 0.000, 10:37:20.907, 1583739440907
106, -27151.96, -32024.77, -21151.68, -16809.09, -21183.73, -21603.90, -24534.71, -23501.90, 0.002, -0.022, 0.974, 10:37:20.907, 1583739440907
107, -27556.15, -32048.62, -21283.15, -16948.75, -21773.30, -21695.99, -24711.71, -23775.30, 0.000, 0.000, 0.000, 10:37:21.363, 1583739441363
108, -27120.04, -31991.78, -21180.56, -16829.88, -21268.40, -21599.07, -24449.32, -23548.03, 0.000, 0.000, 0.000, 10:37:21.364, 1583739441364
109, -26392.34, -31927.05, -20991.37, -16667.03, -20380.95, -21493.35, -24086.60, -23129.16, 0.000, 0.000, 0.000, 10:37:21.365, 1583739441365
110, -26476.24, -31962.12, -20974.14, -16622.63, -20328.13, -21450.34, -24167.58, -23115.44, 0.000, 0.000, 0.000, 10:37:21.365, 1583739441365
111, -27146.71, -32024.68, -21147.52, -16812.36, -21178.99, -21603.12, -24525.65, -23497.49, 0.000, 0.000, 0.000, 10:37:21.365, 1583739441365
112, -27554.76, -32048.85, -21288.43, -16959.81, -21777.01, -21701.33, -24710.84, -23777.92, 0.000, 0.000, 0.000, 10:37:21.365, 1583739441365
113, -27120.51, -31990.53, -21187.38, -16849.39, -21276.85, -21609.76, -24452.63, -23556.86, 0.000, 0.000, 0.000, 10:37:21.365, 1583739441365
114, -26385.74, -31916.52, -20981.94, -16670.06, -20377.28, -21490.91, -24081.52, -23127.84, 0.000, 0.000, 0.000, 10:37:21.366, 1583739441366
115, -26469.90, -31956.20, -20961.67, -16599.95, -20314.36, -21432.04, -24159.66, -23103.95, 0.000, 0.000, 0.000, 10:37:21.366, 1583739441366
116, -27143.09, -32024.17, -21142.31, -16799.35, -21167.23, -21589.86, -24520.51, -23491.50, 0.006, -0.022, 0.970, 10:37:21.366, 1583739441366
117, -27548.66, -32048.06, -21274.14, -16949.42, -21763.04, -21689.46, -24699.30, -23774.57, 0.000, 0.000, 0.000, 10:37:21.366, 1583739441366
118, -27121.09, -31995.81, -21177.81, -16835.04, -21267.53, -21597.53, -24443.22, -23556.23, 0.000, 0.000, 0.000, 10:37:21.366, 1583739441366
119, -26387.98, -31920.73, -20986.25, -16664.74, -20376.01, -21489.57, -24081.14, -23135.87, 0.000, 0.000, 0.000, 10:37:21.366, 1583739441366
120, -26471.10, -31959.66, -20969.22, -16616.53, -20318.54, -21446.52, -24164.74, -23121.16, 0.000, 0.000, 0.000, 10:37:21.367, 1583739441367
121, -27149.50, -32028.28, -21151.41, -16822.32, -21174.77, -21609.58, -24530.28, -23511.93, 0.000, 0.000, 0.000, 10:37:21.367, 1583739441367
122, -27562.47, -32053.76, -21295.00, -16972.04, -21782.11, -21710.72, -24718.03, -23798.15, 0.000, 0.000, 0.000, 10:37:21.367, 1583739441367
123, -27134.17, -31999.99, -21192.98, -16854.04, -21284.47, -21613.89, -24458.71, -23575.63, 0.000, 0.000, 0.000, 10:37:21.367, 1583739441367
124, -26400.99, -31929.00, -20993.52, -16676.55, -20385.80, -21497.75, -24089.50, -23146.21, 0.000, 0.000, 0.000, 10:37:21.367, 1583739441367
125, -26474.05, -31964.65, -20968.60, -16613.25, -20319.95, -21443.12, -24165.25, -23120.91, 0.000, 0.000, 0.000, 10:37:21.368, 1583739441368
126, -27143.87, -32029.74, -21144.08, -16803.39, -21167.08, -21596.57, -24525.61, -23503.55, 0.004, -0.024, 0.972, 10:37:21.368, 1583739441368
127, -27563.12, -32061.25, -21288.98, -16957.69, -21777.88, -21700.88, -24715.55, -23791.51, 0.000, 0.000, 0.000, 10:37:21.368, 1583739441368
128, -27139.20, -32008.86, -21195.44, -16850.69, -21291.87, -21613.26, -24460.79, -23575.61, 0.000, 0.000, 0.000, 10:37:21.368, 1583739441368
129, -26403.91, -31936.44, -21004.16, -16682.16, -20399.41, -21505.15, -24096.97, -23152.09, 0.000, 0.000, 0.000, 10:37:21.368, 1583739441368
130, -26476.11, -31970.64, -20981.78, -16623.53, -20330.72, -21454.19, -24174.71, -23128.65, 0.000, 0.000, 0.000, 10:37:21.369, 1583739441369
131, -27148.54, -32035.79, -21153.89, -16814.05, -21177.03, -21607.36, -24534.26, -23510.26, 0.000, 0.000, 0.000, 10:37:21.369, 1583739441369
132, -27566.76, -32060.47, -21299.45, -16971.37, -21791.50, -21712.01, -24724.29, -23796.56, 0.000, 0.000, 0.000, 10:37:21.369, 1583739441369
133, -27146.21, -32008.08, -21202.69, -16855.25, -21304.50, -21617.36, -24470.06, -23578.09, 0.000, 0.000, 0.000, 10:37:21.369, 1583739441369
134, -26406.44, -31932.06, -20997.43, -16670.51, -20400.37, -21496.59, -24097.57, -23146.46, 0.000, 0.000, 0.000, 10:37:21.370, 1583739441370
135, -26472.71, -31964.20, -20967.30, -16605.78, -20322.36, -21438.99, -24166.57, -23116.22, 0.000, 0.000, 0.000, 10:37:21.370, 1583739441370
136, -27142.77, -32031.59, -21139.47, -16798.27, -21166.25, -21592.39, -24523.42, -23496.80, 0.004, -0.020, 0.976, 10:37:21.370, 1583739441370
137, -27562.27, -32057.74, -21284.27, -16954.15, -21782.02, -21698.71, -24713.63, -23787.20, 0.000, 0.000, 0.000, 10:37:21.371, 1583739441371
138, -27147.13, -32005.73, -21193.92, -16849.01, -21300.50, -21612.30, -24464.23, -23576.75, 0.000, 0.000, 0.000, 10:37:21.371, 1583739441371
139, -26411.31, -31932.77, -20992.29, -16675.12, -20402.27, -21497.37, -24093.21, -23147.22, 0.000, 0.000, 0.000, 10:37:21.371, 1583739441371
140, -26482.61, -31969.21, -20965.85, -16615.57, -20323.84, -21445.69, -24164.07, -23121.29, 0.000, 0.000, 0.000, 10:37:21.371, 1583739441371
141, -27153.88, -32039.77, -21139.77, -16808.09, -21165.43, -21599.34, -24522.48, -23504.36, 0.000, 0.000, 0.000, 10:37:21.372, 1583739441372
142, -27569.96, -32064.22, -21280.22, -16961.82, -21779.18, -21701.80, -24709.76, -23791.13, 0.000, 0.000, 0.000, 10:37:21.372, 1583739441372
143, -27154.60, -32010.47, -21186.26, -16853.79, -21299.94, -21612.08, -24459.38, -23579.59, 0.000, 0.000, 0.000, 10:37:21.372, 1583739441372
144, -26409.50, -31933.24, -20987.66, -16674.42, -20399.47, -21492.56, -24086.62, -23146.10, 0.000, 0.000, 0.000, 10:37:21.373, 1583739441373
145, -26470.92, -31967.04, -20963.19, -16614.59, -20318.56, -21439.72, -24158.26, -23116.31, 0.000, 0.000, 0.000, 10:37:21.373, 1583739441373
146, -27140.89, -32033.16, -21139.79, -16805.92, -21160.55, -21594.27, -24519.26, -23500.00, 0.002, -0.018, 0.972, 10:37:21.374, 1583739441374
147, -27563.92, -32058.90, -21281.52, -16956.90, -21777.66, -21698.45, -24708.38, -23790.12, 0.000, 0.000, 0.000, 10:37:21.375, 1583739441375
148, -27152.36, -32007.45, -21185.94, -16851.63, -21297.37, -21608.53, -24457.17, -23578.23, 0.000, 0.000, 0.000, 10:37:21.375, 1583739441375
149, -26416.90, -31940.11, -20996.60, -16692.97, -20405.38, -21504.93, -24094.76, -23157.99, 0.000, 0.000, 0.000, 10:37:21.375, 1583739441375
150, -26476.27, -31973.30, -20967.99, -16629.32, -20322.05, -21450.46, -24165.10, -23126.54, 0.000, 0.000, 0.000, 10:37:21.375, 1583739441375
151, -27145.50, -32036.02, -21140.99, -16813.88, -21165.18, -21600.63, -24524.49, -23503.57, 0.000, 0.000, 0.000, 10:37:21.375, 1583739441375
152, -27573.20, -32072.70, -21285.61, -16965.78, -21784.63, -21706.92, -24718.90, -23796.27, 0.000, 0.000, 0.000, 10:37:21.376, 1583739441376
153, -27160.97, -32018.13, -21189.10, -16840.29, -21306.22, -21607.34, -24466.44, -23580.02, 0.000, 0.000, 0.000, 10:37:21.376, 1583739441376
154, -26420.50, -31943.59, -20995.80, -16666.76, -20409.76, -21495.47, -24099.47, -23152.74, 0.000, 0.000, 0.000, 10:37:21.376, 1583739441376
155, -26473.88, -31972.92, -20968.60, -16604.28, -20323.08, -21439.61, -24168.00, -23118.79, 0.000, 0.000, 0.000, 10:37:21.376, 1583739441376
156, -27141.41, -32037.11, -21146.67, -16799.55, -21166.39, -21594.33, -24529.45, -23501.38, 0.002, -0.022, 0.974, 10:37:21.377, 1583739441377
157, -27568.30, -32062.28, -21300.65, -16965.73, -21794.16, -21708.86, -24729.84, -23799.55, 0.000, 0.000, 0.000, 10:37:21.377, 1583739441377
158, -27159.58, -32006.74, -21202.66, -16853.46, -21318.78, -21616.06, -24479.90, -23587.66, 0.000, 0.000, 0.000, 10:37:21.377, 1583739441377
159, -26413.70, -31925.69, -20991.95, -16671.38, -20408.55, -21494.40, -24102.27, -23150.15, 0.000, 0.000, 0.000, 10:37:21.377, 1583739441377
160, -26466.72, -31958.95, -20966.03, -16607.55, -20317.49, -21437.78, -24168.92, -23114.52, 0.000, 0.000, 0.000, 10:37:21.377, 1583739441377
161, -27135.51, -32027.57, -21140.79, -16800.24, -21158.38, -21592.66, -24527.93, -23496.18, 0.000, 0.000, 0.000, 10:37:21.378, 1583739441378
162, -27563.48, -32052.78, -21293.32, -16970.07, -21791.21, -21707.81, -24726.42, -23796.29, 0.000, 0.000, 0.000, 10:37:21.378, 1583739441378
163, -27154.78, -32001.82, -21203.96, -16861.57, -21326.18, -21618.81, -24480.21, -23587.66, 0.000, 0.000, 0.000, 10:37:21.378, 1583739441378
164, -26405.34, -31925.08, -21000.29, -16679.50, -20417.04, -21499.79, -24103.56, -23151.24, 0.000, 0.000, 0.000, 10:37:21.378, 1583739441378
165, -26461.02, -31959.66, -20973.96, -16618.01, -20321.54, -21445.85, -24170.10, -23116.66, 0.000, 0.000, 0.000, 10:37:21.378, 1583739441378
166, -27133.38, -32025.49, -21150.47, -16813.56, -21160.28, -21600.77, -24530.39, -23497.83, 0.000, 0.000, 0.000, 10:37:21.379, 1583739441379
167, -27558.04, -32048.20, -21287.33, -16959.70, -21779.14, -21700.35, -24718.62, -23784.96, 0.002, -0.018, 0.972, 10:37:21.379, 1583739441379
168, -27155.71, -32000.46, -21194.46, -16853.26, -21311.96, -21610.98, -24472.63, -23578.05, 0.000, 0.000, 0.000, 10:37:21.379, 1583739441379
169, -26412.63, -31930.92, -20995.44, -16680.90, -20409.13, -21499.63, -24100.10, -23149.72, 0.000, 0.000, 0.000, 10:37:21.379, 1583739441379
170, -26465.22, -31961.41, -20963.99, -16617.02, -20311.99, -21443.90, -24162.10, -23114.65, 0.000, 0.000, 0.000, 10:37:21.379, 1583739441379
171, -27135.49, -32029.54, -21137.62, -16806.54, -21144.37, -21594.82, -24517.78, -23494.28, 0.000, 0.000, 0.000, 10:37:21.380, 1583739441380
172, -27559.95, -32047.80, -21273.56, -16955.41, -21763.74, -21694.85, -24701.83, -23783.02, 0.000, 0.000, 0.000, 10:37:21.380, 1583739441380
173, -27158.60, -31994.53, -21181.81, -16851.47, -21301.03, -21607.25, -24456.05, -23580.58, 0.000, 0.000, 0.000, 10:37:21.380, 1583739441380
174, -26416.34, -31924.21, -20985.20, -16678.85, -20398.25, -21494.87, -24083.67, -23151.89, 0.000, 0.000, 0.000, 10:37:21.380, 1583739441380
175, -26463.93, -31959.24, -20955.34, -16610.41, -20294.09, -21436.66, -24147.37, -23112.62, 0.000, 0.000, 0.000, 10:37:21.380, 1583739441380
176, -27131.48, -32023.75, -21127.90, -16794.23, -21128.05, -21584.12, -24507.50, -23489.67, 0.000, 0.000, 0.000, 10:37:21.381, 1583739441381
177, -27567.21, -32053.34, -21272.24, -16955.07, -21763.54, -21694.58, -24707.26, -23787.73, -0.004, -0.020, 0.974, 10:37:21.381, 1583739441381
178, -27171.34, -32004.70, -21184.07, -16853.68, -21310.46, -21609.80, -24465.93, -23588.46, 0.000, 0.000, 0.000, 10:37:21.381, 1583739441381
179, -26421.33, -31925.89, -20990.81, -16683.05, -20409.71, -21498.18, -24094.67, -23159.51, 0.000, 0.000, 0.000, 10:37:21.381, 1583739441381
180, -26462.47, -31959.98, -20963.79, -16618.79, -20308.28, -21442.83, -24160.76, -23120.29, 0.000, 0.000, 0.000, 10:37:21.382, 1583739441382
181, -27129.34, -32028.33, -21137.11, -16794.59, -21142.94, -21588.30, -24522.08, -23495.53, 0.000, 0.000, 0.000, 10:37:21.382, 1583739441382
182, -27562.83, -32053.54, -21278.88, -16951.09, -21774.42, -21694.87, -24716.76, -23791.69, 0.000, 0.000, 0.000, 10:37:21.382, 1583739441382
183, -27169.82, -31999.07, -21193.39, -16853.59, -21319.67, -21610.25, -24476.08, -23595.71, 0.000, 0.000, 0.000, 10:37:21.382, 1583739441382
184, -26423.49, -31922.80, -21000.94, -16683.21, -20420.26, -21499.23, -24106.29, -23167.98, 0.000, 0.000, 0.000, 10:37:21.382, 1583739441382
185, -26458.85, -31957.47, -20962.96, -16607.28, -20309.31, -21435.90, -24161.61, -23120.53, 0.000, 0.000, 0.000, 10:37:21.383, 1583739441383
186, -27125.94, -32026.92, -21136.19, -16793.92, -21143.45, -21585.75, -24520.80, -23498.66, 0.000, 0.000, 0.000, 10:37:21.383, 1583739441383
187, -27565.00, -32058.68, -21289.63, -16968.86, -21787.38, -21705.80, -24727.18, -23805.97, -0.002, -0.020, 0.968, 10:37:21.383, 1583739441383
188, -27170.44, -32008.14, -21203.49, -16870.43, -21336.71, -21621.27, -24489.73, -23608.89, 0.000, 0.000, 0.000, 10:37:21.383, 1583739441383
189, -26424.39, -31931.63, -21005.41, -16694.90, -20428.20, -21506.89, -24111.54, -23176.01, 0.000, 0.000, 0.000, 10:37:21.383, 1583739441383
190, -26463.28, -31962.90, -20971.54, -16618.46, -20314.92, -21444.89, -24164.89, -23127.95, 0.000, 0.000, 0.000, 10:37:21.384, 1583739441384
191, -27128.58, -32029.13, -21145.02, -16805.87, -21145.96, -21596.08, -24523.60, -23502.21, 0.000, 0.000, 0.000, 10:37:21.384, 1583739441384
192, -27564.64, -32055.02, -21293.66, -16972.21, -21784.86, -21709.18, -24724.47, -23800.94, 0.000, 0.000, 0.000, 10:37:21.384, 1583739441384
193, -27172.21, -32001.86, -21203.89, -16866.16, -21332.26, -21619.19, -24483.92, -23600.92, 0.000, 0.000, 0.000, 10:37:21.385, 1583739441385
194, -26424.05, -31924.86, -21007.64, -16690.52, -20427.48, -21505.46, -24108.99, -23168.68, 0.000, 0.000, 0.000, 10:37:21.385, 1583739441385
195, -26450.63, -31949.85, -20963.34, -16611.12, -20305.20, -21436.30, -24156.13, -23112.71, 0.000, 0.000, 0.000, 10:37:21.386, 1583739441386
196, -27118.16, -32020.82, -21132.17, -16793.60, -21132.61, -21582.82, -24513.04, -23487.46, 0.000, 0.000, 0.000, 10:37:21.386, 1583739441386
197, -27560.55, -32051.86, -21279.69, -16946.00, -21774.42, -21690.98, -24714.52, -23787.49, 0.002, -0.018, 0.968, 10:37:21.386, 1583739441386
198, -27171.49, -31999.96, -21193.12, -16847.54, -21326.80, -21606.83, -24475.23, -23593.88, 0.000, 0.000, 0.000, 10:37:21.386, 1583739441386
199, -26420.79, -31921.78, -20995.80, -16677.26, -20419.50, -21494.31, -24098.00, -23162.71, 0.000, 0.000, 0.000, 10:37:21.386, 1583739441386
200, -26455.43, -31957.09, -20965.47, -16612.89, -20300.88, -21437.69, -24153.41, -23118.68, 0.000, 0.000, 0.000, 10:37:21.386, 1583739441386
201, -27122.10, -32028.13, -21135.45, -16791.79, -21127.58, -21580.74, -24510.12, -23492.53, 0.000, 0.000, 0.000, 10:37:21.386, 1583739441386
202, -27558.65, -32054.28, -21272.36, -16946.11, -21765.05, -21685.59, -24706.48, -23788.29, 0.000, 0.000, 0.000, 10:37:21.386, 1583739441386
203, -27173.15, -32004.57, -21180.85, -16845.53, -21316.05, -21599.36, -24466.78, -23594.43, 0.000, 0.000, 0.000, 10:37:21.387, 1583739441387
204, -26427.27, -31926.49, -20983.97, -16675.05, -20408.01, -21488.61, -24088.74, -23166.20, 0.000, 0.000, 0.000, 10:37:21.387, 1583739441387
205, -26453.58, -31960.02, -20949.46, -16608.08, -20284.68, -21431.05, -24139.26, -23116.71, 0.000, 0.000, 0.000, 10:37:21.387, 1583739441387
206, -27118.14, -32026.45, -21117.17, -16782.16, -21107.96, -21573.66, -24494.38, -23487.01, 0.000, 0.000, 0.000, 10:37:21.387, 1583739441387
207, -27560.24, -32052.47, -21264.60, -16943.56, -21753.97, -21684.92, -24696.87, -23789.10, 0.006, -0.018, 0.972, 10:37:21.387, 1583739441387
208, -27177.57, -32005.19, -21183.82, -16846.89, -21314.02, -21601.35, -24465.08, -23599.22, 0.000, 0.000, 0.000, 10:37:21.387, 1583739441387
209, -26425.17, -31925.13, -20987.10, -16677.62, -20408.10, -21489.10, -24089.79, -23166.04, 0.000, 0.000, 0.000, 10:37:21.388, 1583739441388
210, -26450.40, -31950.12, -20954.89, -16610.38, -20285.62, -21429.67, -24144.06, -23113.51, 0.000, 0.000, 0.000, 10:37:21.389, 1583739441389
211, -27117.52, -32021.69, -21128.68, -16793.47, -21116.32, -21577.88, -24508.89, -23488.33, 0.000, 0.000, 0.000, 10:37:21.390, 1583739441390
212, -27563.68, -32053.05, -21281.18, -16956.59, -21767.20, -21692.61, -24717.27, -23794.35, 0.000, 0.000, 0.000, 10:37:21.390, 1583739441390
213, -27182.94, -32004.84, -21195.18, -16847.45, -21329.15, -21603.32, -24481.89, -23599.17, 0.000, 0.000, 0.000, 10:37:21.390, 1583739441390
214, -26429.95, -31929.44, -21004.07, -16681.31, -20427.30, -21497.62, -24110.22, -23171.56, 0.000, 0.000, 0.000, 10:37:21.390, 1583739441390
215, -26448.62, -31955.60, -20964.86, -16607.50, -20297.93, -21434.92, -24157.61, -23116.80, 0.000, 0.000, 0.000, 10:37:21.390, 1583739441390
216, -27112.13, -32025.78, -21125.33, -16787.23, -21117.08, -21576.29, -24511.82, -23486.25, 0.000, 0.000, 0.000, 10:37:21.391, 1583739441391
217, -27558.98, -32049.58, -21278.46, -16957.84, -21771.80, -21695.43, -24721.34, -23793.48, 0.002, -0.022, 0.974, 10:37:21.391, 1583739441391
218, -27176.95, -31996.90, -21196.87, -16852.97, -21338.45, -21609.80, -24491.41, -23604.60, 0.000, 0.000, 0.000, 10:37:21.391, 1583739441391
219, -26418.08, -31917.78, -20995.98, -16675.76, -20423.84, -21491.67, -24111.03, -23168.72, 0.000, 0.000, 0.000, 10:37:21.391, 1583739441391
220, -26441.87, -31954.14, -20954.96, -16601.36, -20286.53, -21428.08, -24154.41, -23109.78, 0.000, 0.000, 0.000, 10:37:21.391, 1583739441391
221, -27110.99, -32027.30, -21125.19, -16784.62, -21111.36, -21574.17, -24508.55, -23480.53, 0.000, 0.000, 0.000, 10:37:21.391, 1583739441391
222, -27563.63, -32056.60, -21281.83, -16962.16, -21772.03, -21697.26, -24718.62, -23793.41, 0.000, 0.000, 0.000, 10:37:21.392, 1583739441392
223, -27186.07, -32005.46, -21201.39, -16867.45, -21344.17, -21616.19, -24488.99, -23607.13, 0.000, 0.000, 0.000, 10:37:21.392, 1583739441392
224, -26429.08, -31926.20, -21001.90, -16686.27, -20433.36, -21498.89, -24109.73, -23170.42, 0.000, 0.000, 0.000, 10:37:21.392, 1583739441392
225, -26444.10, -31956.65, -20959.43, -16607.93, -20294.87, -21435.19, -24153.23, -23112.08, 0.000, 0.000, 0.000, 10:37:21.392, 1583739441392
226, -27107.01, -32026.27, -21128.63, -16787.79, -21117.21, -21580.70, -24510.95, -23485.80, 0.000, 0.000, 0.000, 10:37:21.392, 1583739441392
227, -27551.97, -32051.35, -21281.14, -16949.89, -21773.53, -21694.22, -24719.04, -23793.12, 0.002, -0.018, 0.976, 10:37:21.831, 1583739441831
228, -27180.39, -32009.13, -21202.10, -16858.09, -21347.41, -21615.07, -24491.34, -23612.54, 0.000, 0.000, 0.000, 10:37:21.831, 1583739441831
229, -26429.75, -31936.78, -21004.63, -16690.52, -20436.71, -21505.33, -24113.31, -23183.09, 0.000, 0.000, 0.000, 10:37:21.831, 1583739441831
230, -26445.67, -31965.50, -20970.32, -16623.57, -20301.24, -21446.99, -24161.16, -23129.49, 0.000, 0.000, 0.000, 10:37:21.832, 1583739441832
231, -27108.84, -32035.01, -21133.06, -16798.86, -21115.89, -21587.61, -24513.69, -23498.54, 0.000, 0.000, 0.000, 10:37:21.832, 1583739441832
232, -27558.38, -32064.27, -21274.93, -16956.70, -21767.38, -21698.27, -24716.02, -23801.97, 0.000, 0.000, 0.000, 10:37:21.832, 1583739441832
233, -27186.00, -32014.31, -21192.67, -16858.51, -21343.43, -21613.22, -24485.55, -23616.23, 0.000, 0.000, 0.000, 10:37:21.832, 1583739441832
234, -26429.64, -31938.07, -20991.33, -16680.08, -20429.63, -21496.37, -24104.23, -23179.12, 0.000, 0.000, 0.000, 10:37:21.832, 1583739441832
235, -26441.04, -31968.34, -20955.36, -16603.66, -20287.00, -21431.90, -24149.12, -23117.18, 0.000, 0.000, 0.000, 10:37:21.833, 1583739441833
236, -27101.69, -32036.06, -21121.79, -16778.00, -21107.38, -21570.37, -24504.08, -23482.27, 0.000, 0.000, 0.000, 10:37:21.833, 1583739441833
237, -27557.33, -32065.95, -21275.93, -16947.45, -21772.90, -21686.33, -24715.96, -23790.88, 0.006, -0.014, 0.972, 10:37:21.833, 1583739441833
238, -27187.61, -32013.55, -21191.49, -16845.26, -21348.57, -21598.65, -24487.25, -23602.70, 0.000, 0.000, 0.000, 10:37:21.833, 1583739441833
239, -26431.34, -31933.65, -20989.54, -16665.91, -20435.44, -21483.13, -24107.81, -23167.02, 0.000, 0.000, 0.000, 10:37:21.833, 1583739441833
240, -26433.31, -31955.26, -20950.74, -16591.77, -20289.77, -21419.77, -24150.05, -23104.71, 0.000, 0.000, 0.000, 10:37:21.838, 1583739441838
241, -27097.76, -32025.20, -21122.31, -16774.56, -21109.63, -21566.33, -24509.92, -23477.31, 0.000, 0.000, 0.000, 10:37:21.838, 1583739441838
242, -27554.65, -32050.01, -21275.73, -16939.45, -21772.86, -21683.52, -24719.93, -23787.31, 0.000, 0.000, 0.000, 10:37:21.838, 1583739441838
243, -27193.85, -32006.15, -21202.64, -16851.29, -21358.79, -21608.19, -24499.95, -23610.97, 0.000, 0.000, 0.000, 10:37:21.839, 1583739441839
244, -26437.26, -31932.86, -21011.22, -16689.09, -20455.89, -21505.22, -24124.37, -23185.11, 0.000, 0.000, 0.000, 10:37:21.839, 1583739441839
245, -26438.89, -31960.06, -20969.69, -16609.98, -20306.76, -21442.23, -24163.51, -23122.37, 0.000, 0.000, 0.000, 10:37:21.839, 1583739441839
246, -27101.62, -32029.76, -21143.43, -16793.24, -21125.01, -21590.87, -24525.14, -23496.94, 0.000, 0.000, 0.000, 10:37:21.839, 1583739441839
247, -27560.62, -32058.26, -21304.88, -16976.95, -21798.96, -21718.85, -24743.40, -23816.30, 0.008, -0.016, 0.970, 10:37:21.839, 1583739441839
248, -27201.16, -32014.60, -21228.70, -16885.78, -21387.82, -21640.18, -24521.83, -23641.46, 0.000, 0.000, 0.000, 10:37:21.840, 1583739441840
249, -26445.11, -31941.92, -21028.90, -16705.07, -20475.45, -21524.60, -24139.39, -23207.30, 0.000, 0.000, 0.000, 10:37:21.840, 1583739441840
250, -26444.62, -31969.79, -20984.31, -16633.68, -20319.34, -21463.82, -24176.45, -23143.24, 0.000, 0.000, 0.000, 10:37:21.840, 1583739441840
251, -27099.99, -32035.14, -21141.96, -16810.08, -21121.64, -21601.55, -24525.43, -23508.16, 0.000, 0.000, 0.000, 10:37:21.840, 1583739441840
252, -27559.54, -32064.45, -21293.19, -16968.30, -21784.81, -21712.19, -24734.91, -23815.74, 0.000, 0.000, 0.000, 10:37:21.841, 1583739441841
253, -27194.43, -32012.39, -21211.45, -16869.02, -21368.11, -21624.60, -24506.45, -23630.11, 0.000, 0.000, 0.000, 10:37:21.841, 1583739441841
254, -26435.07, -31934.05, -21013.70, -16695.23, -20455.06, -21510.98, -24122.58, -23194.09, 0.000, 0.000, 0.000, 10:37:21.841, 1583739441841
255, -26434.60, -31960.36, -20966.76, -16610.61, -20293.75, -21439.64, -24156.54, -23123.15, 0.000, 0.000, 0.000, 10:37:21.841, 1583739441841
0, -27098.70, -32032.04, -21129.01, -16789.87, -21102.66, -21582.55, -24513.34, -23494.32, 0.000, 0.000, 0.000, 10:37:21.842, 1583739441842
1, -27560.77, -32064.47, -21280.85, -16965.29, -21773.21, -21704.57, -24729.28, -23811.74, 0.000, 0.000, 0.000, 10:37:21.842, 1583739441842
2, -27203.10, -32017.38, -21204.54, -16870.54, -21365.29, -21621.33, -24507.73, -23633.41, 0.004, -0.016, 0.976, 10:37:21.842, 1583739441842
3, -26446.96, -31942.18, -21003.26, -16689.62, -20451.82, -21504.66, -24125.80, -23197.51, 0.000, 0.000, 0.000, 10:37:21.842, 1583739441842
4, -26442.20, -31970.37, -20958.96, -16610.10, -20292.97, -21437.91, -24161.47, -23128.00, 0.000, 0.000, 0.000, 10:37:21.842, 1583739441842
5, -27100.57, -32037.69, -21125.62, -16787.54, -21104.52, -21579.47, -24517.56, -23494.77, 0.000, 0.000, 0.000, 10:37:21.843, 1583739441843
6, -27565.76, -32070.30, -21282.91, -16959.65, -21778.80, -21703.63, -24735.65, -23812.72, 0.000, 0.000, 0.000, 10:37:21.843, 1583739441843
7, -27214.30, -32028.08, -21210.96, -16865.60, -21380.40, -21624.35, -24518.77, -23639.79, 0.000, 0.000, 0.000, 10:37:21.843, 1583739441843
8, -26450.40, -31942.54, -21014.80, -16691.25, -20469.46, -21511.16, -24137.45, -23204.89, 0.000, 0.000, 0.000, 10:37:21.843, 1583739441843
9, -26440.44, -31964.07, -20973.96, -16617.29, -20310.05, -21450.16, -24175.02, -23137.77, 0.000, 0.000, 0.000, 10:37:21.843, 1583739441843
10, -27095.63, -32035.17, -21137.35, -16792.69, -21115.25, -21587.98, -24529.34, -23501.61, 0.000, 0.000, 0.000, 10:37:21.843, 1583739441843
11, -27555.99, -32061.43, -21288.36, -16954.51, -21785.75, -21701.91, -24742.69, -23812.05, 0.000, 0.000, 0.000, 10:37:21.844, 1583739441844
12, -27204.17, -32009.48, -21212.30, -16858.89, -21384.61, -21620.33, -24523.35, -23637.17, 0.004, -0.022, 0.970, 10:37:21.844, 1583739441844
13, -26443.03, -31933.53, -21013.68, -16686.74, -20472.28, -21508.50, -24141.00, -23202.36, 0.000, 0.000, 0.000, 10:37:21.844, 1583739441844
14, -26435.88, -31961.50, -20975.86, -16619.17, -20310.27, -21451.08, -24177.14, -23137.27, 0.000, 0.000, 0.000, 10:37:21.844, 1583739441844
15, -27097.91, -32032.64, -21146.74, -16800.31, -21121.84, -21594.87, -24535.22, -23507.17, 0.000, 0.000, 0.000, 10:37:21.844, 1583739441844
16, -27562.58, -32062.75, -21299.58, -16970.49, -21796.86, -21714.92, -24749.79, -23821.10, 0.000, 0.000, 0.000, 10:37:21.844, 1583739441844
17, -27205.58, -32008.21, -21220.23, -16869.73, -21392.23, -21626.74, -24525.03, -23639.63, 0.000, 0.000, 0.000, 10:37:21.845, 1583739441845
18, -26443.88, -31928.77, -21022.46, -16695.66, -20477.26, -21513.08, -24140.67, -23204.26, 0.000, 0.000, 0.000, 10:37:21.845, 1583739441845
19, -26426.87, -31952.55, -20968.95, -16604.46, -20302.65, -21440.33, -24165.95, -23125.27, 0.000, 0.000, 0.000, 10:37:21.845, 1583739441845
20, -27082.58, -32019.14, -21134.33, -16780.04, -21106.91, -21581.08, -24520.67, -23490.21, 0.000, 0.000, 0.000, 10:37:21.845, 1583739441845
21, -27553.89, -32055.11, -21290.08, -16959.81, -21786.74, -21708.77, -24738.51, -23811.74, 0.000, 0.000, 0.000, 10:37:21.845, 1583739441845
22, -27208.04, -32011.77, -21212.83, -16870.83, -21389.30, -21628.78, -24520.33, -23641.06, 0.004, -0.020, 0.976, 10:37:21.845, 1583739441845
23, -26445.49, -31932.68, -21013.21, -16694.36, -20474.87, -21513.49, -24137.83, -23205.09, 0.000, 0.000, 0.000, 10:37:21.845, 1583739441845
24, -26435.90, -31963.31, -20968.53, -16617.29, -20301.73, -21449.54, -24169.30, -23135.13, 0.000, 0.000, 0.000, 10:37:21.845, 1583739441845
25, -27090.29, -32032.15, -21129.75, -16788.19, -21098.62, -21586.78, -24518.34, -23499.73, 0.000, 0.000, 0.000, 10:37:21.846, 1583739441846
26, -27553.66, -32060.71, -21291.20, -16968.01, -21783.94, -21714.54, -24738.66, -23822.53, 0.000, 0.000, 0.000, 10:37:21.846, 1583739441846
27, -27209.31, -32011.81, -21219.79, -16880.35, -21395.80, -21636.06, -24524.27, -23653.67, 0.000, 0.000, 0.000, 10:37:21.846, 1583739441846
28, -26444.30, -31927.88, -21008.18, -16690.36, -20468.77, -21509.82, -24129.04, -23205.92, 0.000, 0.000, 0.000, 10:37:21.846, 1583739441846
29, -26426.09, -31957.41, -20960.15, -16607.23, -20292.34, -21442.63, -24158.44, -23129.70, 0.000, 0.000, 0.000, 10:37:21.846, 1583739441846
30, -27082.91, -32029.96, -21129.80, -16788.02, -21100.69, -21587.18, -24520.51, -23500.53, 0.000, 0.000, 0.000, 10:37:21.846, 1583739441846
31, -27555.72, -32066.91, -21293.12, -16974.18, -21789.57, -21718.50, -24746.44, -23827.16, 0.000, 0.000, 0.000, 10:37:21.846, 1583739441846
32, -27219.21, -32021.64, -21225.35, -16893.36, -21407.94, -21645.25, -24534.66, -23662.88, 0.004, -0.020, 0.978, 10:37:21.846, 1583739441846
33, -26454.96, -31940.06, -21026.75, -16713.03, -20495.37, -21530.18, -24151.71, -23225.27, 0.000, 0.000, 0.000, 10:37:21.847, 1583739441847
34, -26430.96, -31961.21, -20975.41, -16614.86, -20311.46, -21454.30, -24177.68, -23141.36, 0.000, 0.000, 0.000, 10:37:21.847, 1583739441847
35, -27083.47, -32026.32, -21137.53, -16788.42, -21109.75, -21591.49, -24531.40, -23503.57, 0.000, 0.000, 0.000, 10:37:21.847, 1583739441847
36, -27556.28, -32058.59, -21298.17, -16971.01, -21799.81, -21719.39, -24755.67, -23828.01, 0.000, 0.000, 0.000, 10:37:21.847, 1583739441847
37, -27216.06, -32012.19, -21228.52, -16883.63, -21417.78, -21641.85, -24545.08, -23664.10, 0.000, 0.000, 0.000, 10:37:21.847, 1583739441847
38, -26450.92, -31935.79, -21029.55, -16709.87, -20503.03, -21529.45, -24162.44, -23228.85, 0.000, 0.000, 0.000, 10:37:21.847, 1583739441847
39, -26428.90, -31963.15, -20981.04, -16633.52, -20320.89, -21462.90, -24186.80, -23150.82, 0.000, 0.000, 0.000, 10:37:21.847, 1583739441847
40, -27086.49, -32033.00, -21140.93, -16803.86, -21114.51, -21599.59, -24537.50, -23512.58, 0.000, 0.000, 0.000, 10:37:21.847, 1583739441847
41, -27558.78, -32060.80, -21299.00, -16974.41, -21801.49, -21721.02, -24757.17, -23831.00, 0.000, 0.000, 0.000, 10:37:21.848, 1583739441848
42, -27222.46, -32020.93, -21230.09, -16886.41, -21419.81, -21642.90, -24547.51, -23666.18, 0.004, -0.022, 0.980, 10:37:21.848, 1583739441848
43, -26458.56, -31944.06, -21023.74, -16701.49, -20496.48, -21522.25, -24156.33, -23225.56, 0.000, 0.000, 0.000, 10:37:21.848, 1583739441848
44, -26424.14, -31963.93, -20963.90, -16608.37, -20302.22, -21444.51, -24171.98, -23137.47, 0.000, 0.000, 0.000, 10:37:21.848, 1583739441848
45, -27082.54, -32033.36, -21131.81, -16785.98, -21100.00, -21586.78, -24530.23, -23505.18, 0.000, 0.000, 0.000, 10:37:21.848, 1583739441848
46, -27557.04, -32064.11, -21290.44, -16971.08, -21793.02, -21716.11, -24751.27, -23829.66, 0.000, 0.000, 0.000, 10:37:21.848, 1583739441848
47, -27223.55, -32022.34, -21220.37, -16883.41, -21412.63, -21637.47, -24539.29, -23666.09, 0.000, 0.000, 0.000, 10:37:21.848, 1583739441848
48, -26461.00, -31944.06, -21022.80, -16704.71, -20495.50, -21521.60, -24153.29, -23228.69, 0.000, 0.000, 0.000, 10:37:21.849, 1583739441849
49, -26429.19, -31965.88, -20967.14, -16613.56, -20300.44, -21447.64, -24170.42, -23141.03, 0.000, 0.000, 0.000, 10:37:21.849, 1583739441849
50, -27081.71, -32035.10, -21132.12, -16786.12, -21097.61, -21585.48, -24525.63, -23502.66, 0.000, 0.000, 0.000, 10:37:21.849, 1583739441849
51, -27558.61, -32066.97, -21294.06, -16974.27, -21794.60, -21717.83, -24751.96, -23830.89, 0.000, 0.000, 0.000, 10:37:21.849, 1583739441849
52, -27233.12, -32022.09, -21228.39, -16893.04, -21421.22, -21643.91, -24547.40, -23674.07, -0.002, -0.018, 0.978, 10:37:21.849, 1583739441849
53, -26466.03, -31941.40, -21030.15, -16708.67, -20500.42, -21523.23, -24159.31, -23231.73, 0.000, 0.000, 0.000, 10:37:21.849, 1583739441849
54, -26427.90, -31964.47, -20973.13, -16621.96, -20301.44, -21451.08, -24176.92, -23144.02, 0.000, 0.000, 0.000, 10:37:21.849, 1583739441849
55, -27079.49, -32036.44, -21134.94, -16794.85, -21093.94, -21587.52, -24531.22, -23504.40, 0.000, 0.000, 0.000, 10:37:21.849, 1583739441849
56, -27560.35, -32069.30, -21298.06, -16980.55, -21790.09, -21717.56, -24758.85, -23831.29, 0.000, 0.000, 0.000, 10:37:21.850, 1583739441850
57, -27228.67, -32017.17, -21221.28, -16880.46, -21412.63, -21629.74, -24545.50, -23663.21, 0.000, 0.000, 0.000, 10:37:21.850, 1583739441850
58, -26462.50, -31935.57, -21013.25, -16686.38, -20486.27, -21504.52, -24151.46, -23216.73, 0.000, 0.000, 0.000, 10:37:21.850, 1583739441850
59, -26422.31, -31959.46, -20961.20, -16601.42, -20288.39, -21435.41, -24169.39, -23129.07, 0.000, 0.000, 0.000, 10:37:21.850, 1583739441850
60, -27075.72, -32028.39, -21127.05, -16778.04, -21083.30, -21574.51, -24526.14, -23491.75, 0.000, 0.000, 0.000, 10:37:21.850, 1583739441850
61, -27555.97, -32057.36, -21292.43, -16964.17, -21784.28, -21706.74, -24757.02, -23820.86, 0.000, 0.000, 0.000, 10:37:21.850, 1583739441850
62, -27231.62, -32015.50, -21225.37, -16875.90, -21419.70, -21630.27, -24552.81, -23664.28, -0.004, -0.020, 0.970, 10:37:21.850, 1583739441850
63, -26465.72, -31940.66, -21023.31, -16700.15, -20502.90, -21517.53, -24163.98, -23228.47, 0.000, 0.000, 0.000, 10:37:21.850, 1583739441850
64, -26423.14, -31962.08, -20975.53, -16625.27, -20303.74, -21452.58, -24181.28, -23142.55, 0.000, 0.000, 0.000, 10:37:21.851, 1583739441851
65, -27077.04, -32031.66, -21135.05, -16788.04, -21090.30, -21583.54, -24532.13, -23497.92, 0.000, 0.000, 0.000, 10:37:21.851, 1583739441851
66, -27562.27, -32067.18, -21298.42, -16969.38, -21793.91, -21714.85, -24761.40, -23827.45, 0.000, 0.000, 0.000, 10:37:21.851, 1583739441851
67, -27239.13, -32024.37, -21234.36, -16891.19, -21431.88, -21642.75, -24558.96, -23674.54, 0.000, 0.000, 0.000, 10:37:21.851, 1583739441851
68, -26473.16, -31949.61, -21039.74, -16719.46, -20517.87, -21532.87, -24173.32, -23240.40, 0.000, 0.000, 0.000, 10:37:21.851, 1583739441851
69, -26427.05, -31971.73, -20982.59, -16629.65, -20311.14, -21460.94, -24185.91, -23150.71, 0.000, 0.000, 0.000, 10:37:21.851, 1583739441851
70, -27079.49, -32042.90, -21140.44, -16787.14, -21095.02, -21590.96, -24537.77, -23507.24, 0.000, 0.000, 0.000, 10:37:21.851, 1583739441851
71, -27565.78, -32074.69, -21304.10, -16972.04, -21799.12, -21724.64, -24767.07, -23837.08, 0.000, 0.000, 0.000, 10:37:21.851, 1583739441851
72, -27247.13, -32029.56, -21237.93, -16890.47, -21437.71, -21649.70, -24565.04, -23683.84, -0.002, -0.020, 0.972, 10:37:21.852, 1583739441852
73, -26481.05, -31952.35, -21037.89, -16717.47, -20518.74, -21538.07, -24179.47, -23247.67, 0.000, 0.000, 0.000, 10:37:21.852, 1583739441852
74, -26431.52, -31974.64, -20986.90, -16640.43, -20314.63, -21471.98, -24193.95, -23159.92, 0.000, 0.000, 0.000, 10:37:21.852, 1583739441852
75, -27080.99, -32044.96, -21149.02, -16811.13, -21101.57, -21606.22, -24548.27, -23517.90, 0.000, 0.000, 0.000, 10:37:21.852, 1583739441852
76, -27566.65, -32080.61, -21311.76, -16984.96, -21806.63, -21732.02, -24776.55, -23845.49, 0.000, 0.000, 0.000, 10:37:21.852, 1583739441852
77, -27248.50, -32034.72, -21240.73, -16893.02, -21443.26, -21650.77, -24569.42, -23689.18, 0.000, 0.000, 0.000, 10:37:21.852, 1583739441852
78, -26477.76, -31950.88, -21029.10, -16704.89, -20513.89, -21527.32, -24170.24, -23243.47, 0.000, 0.000, 0.000, 10:37:21.852, 1583739441852
79, -26426.56, -31976.16, -20978.97, -16621.96, -20302.96, -21458.03, -24181.46, -23153.01, 0.000, 0.000, 0.000, 10:37:21.852, 1583739441852
80, -27078.27, -32049.43, -21146.76, -16800.15, -21094.26, -21599.63, -24538.26, -23516.02, 0.000, 0.000, 0.000, 10:37:21.853, 1583739441853
81, -27565.44, -32073.70, -21305.37, -16980.17, -21797.82, -21727.57, -24765.98, -23840.97, 0.000, 0.000, 0.000, 10:37:21.853, 1583739441853
82, -27250.38, -32028.28, -21233.20, -16880.60, -21432.89, -21638.70, -24558.78, -23678.45, 0.000, -0.018, 0.970, 10:37:21.853, 1583739441853
83, -26485.83, -31953.85, -21035.43, -16708.49, -20510.70, -21525.82, -24168.07, -23240.05, 0.000, 0.000, 0.000, 10:37:21.853, 1583739441853
84, -26435.56, -31980.76, -20980.62, -16633.12, -20296.61, -21460.18, -24178.15, -23148.61, 0.000, 0.000, 0.000, 10:37:21.853, 1583739441853
85, -27084.19, -32051.73, -21129.68, -16786.90, -21070.99, -21584.39, -24525.61, -23498.77, 0.000, 0.000, 0.000, 10:37:21.853, 1583739441853
86, -27572.08, -32084.16, -21287.60, -16958.47, -21778.31, -21708.88, -24753.42, -23825.62, 0.000, 0.000, 0.000, 10:37:21.854, 1583739441854
87, -27258.26, -32040.49, -21221.62, -16871.92, -21427.03, -21629.96, -24550.91, -23674.05, 0.000, 0.000, 0.000, 10:37:21.854, 1583739441854
88, -26492.52, -31961.61, -21026.55, -16701.29, -20508.78, -21519.03, -24160.98, -23237.12, 0.000, 0.000, 0.000, 10:37:21.854, 1583739441854
89, -26441.60, -31986.42, -20972.57, -16622.37, -20291.96, -21452.06, -24170.71, -23142.26, 0.000, 0.000, 0.000, 10:37:21.854, 1583739441854
90, -27091.92, -32058.73, -21135.03, -16793.51, -21076.40, -21587.49, -24525.96, -23500.11, 0.000, 0.000, 0.000, 10:37:21.854, 1583739441854
91, -27580.78, -32087.34, -21294.48, -16971.12, -21782.60, -21715.99, -24756.10, -23829.78, 0.000, 0.000, 0.000, 10:37:22.310, 1583739442310
92, -27276.55, -32047.26, -21227.92, -16885.22, -21432.19, -21639.97, -24559.25, -23679.30, 0.000, 0.000, 0.000, 10:37:22.311, 1583739442311
93, -26515.52, -31978.57, -21034.40, -16717.41, -20516.87, -21532.53, -24174.01, -23246.98, -0.002, -0.018, 0.952, 10:37:22.311, 1583739442311
94, -26459.81, -32007.54, -20979.62, -16626.12, -20295.38, -21459.30, -24180.18, -23148.45, 0.000, 0.000, 0.000, 10:37:22.311, 1583739442311
95, -27107.99, -32076.79, -21136.59, -16790.32, -21074.01, -21590.24, -24531.73, -23504.29, 0.000, 0.000, 0.000, 10:37:22.311, 1583739442311
96, -27599.69, -32110.36, -21296.52, -16971.16, -21785.89, -21720.78, -24763.43, -23836.59, 0.000, 0.000, 0.000, 10:37:22.311, 1583739442311
97, -27295.08, -32074.28, -21237.60, -16889.38, -21440.66, -21646.52, -24567.07, -23690.39, 0.000, 0.000, 0.000, 10:37:22.311, 1583739442311
98, -26528.26, -31999.00, -21043.29, -16723.62, -20523.73, -21538.61, -24178.35, -23256.99, 0.000, 0.000, 0.000, 10:37:22.311, 1583739442311
99, -26467.57, -32022.99, -20993.29, -16646.37, -20304.86, -21474.01, -24189.06, -23165.62, 0.000, 0.000, 0.000, 10:37:22.311, 1583739442311
100, -27113.94, -32092.54, -21144.50, -16801.38, -21075.01, -21598.15, -24536.49, -23515.64, 0.000, 0.000, 0.000, 10:37:22.311, 1583739442311
101, -27609.37, -32127.44, -21299.92, -16977.69, -21783.61, -21724.26, -24766.60, -23843.88, 0.000, 0.000, 0.000, 10:37:22.312, 1583739442312
102, -27312.18, -32091.22, -21240.55, -16900.91, -21445.85, -21653.36, -24573.15, -23701.25, 0.000, 0.000, 0.000, 10:37:22.312, 1583739442312
103, -26549.20, -32015.65, -21042.31, -16721.94, -20524.82, -21537.49, -24180.76, -23262.20, 0.002, -0.014, 0.960, 10:37:22.312, 1583739442312
104, -26487.29, -32044.62, -20985.85, -16628.56, -20296.39, -21464.09, -24183.67, -23159.29, 0.000, 0.000, 0.000, 10:37:22.312, 1583739442312
105, -27135.17, -32121.04, -21138.69, -16785.40, -21067.26, -21589.64, -24531.42, -23506.01, 0.000, 0.000, 0.000, 10:37:22.317, 1583739442317
106, -27636.48, -32159.85, -21304.38, -16978.00, -21788.68, -21726.81, -24770.61, -23842.87, 0.000, 0.000, 0.000, 10:37:22.317, 1583739442317
107, -27346.04, -32130.12, -21248.75, -16909.23, -21456.09, -21660.16, -24581.75, -23704.61, 0.000, 0.000, 0.000, 10:37:22.318, 1583739442318
108, -26582.71, -32056.45, -21043.85, -16728.07, -20530.81, -21540.58, -24188.01, -23260.88, 0.000, 0.000, 0.000, 10:37:22.318, 1583739442318
109, -26522.82, -32080.56, -20983.08, -16627.04, -20295.81, -21460.29, -24189.59, -23152.14, 0.000, 0.000, 0.000, 10:37:22.318, 1583739442318
110, -27173.35, -32162.26, -21135.05, -16782.40, -21066.05, -21584.32, -24536.98, -23500.38, 0.000, 0.000, 0.000, 10:37:22.318, 1583739442318
111, -27677.25, -32209.24, -21295.22, -16969.87, -21780.81, -21718.12, -24769.51, -23836.59, 0.000, 0.000, 0.000, 10:37:22.318, 1583739442318
112, -27389.51, -32178.73, -21241.29, -16897.43, -21451.24, -21651.62, -24578.58, -23699.91, 0.000, 0.000, 0.000, 10:37:22.318, 1583739442318
113, -26626.31, -32104.70, -21043.00, -16723.73, -20529.29, -21538.79, -24185.77, -23261.39, -0.002, -0.016, 0.964, 10:37:22.319, 1583739442319
114, -26559.48, -32132.24, -20982.68, -16632.31, -20294.89, -21463.84, -24187.09, -23156.65, 0.000, 0.000, 0.000, 10:37:22.319, 1583739442319
115, -27211.39, -32209.67, -21147.21, -16806.66, -21074.92, -21601.53, -24543.31, -23516.47, 0.000, 0.000, 0.000, 10:37:22.319, 1583739442319
116, -27712.88, -32239.19, -21306.71, -16975.01, -21792.35, -21725.43, -24776.17, -23846.27, 0.000, 0.000, 0.000, 10:37:22.319, 1583739442319
117, -27426.91, -32202.98, -21244.19, -16885.71, -21456.62, -21646.08, -24582.54, -23702.26, 0.000, 0.000, 0.000, 10:37:22.319, 1583739442319
118, -26663.08, -32128.22, -21039.45, -16714.39, -20529.79, -21532.62, -24185.91, -23263.40, 0.000, 0.000, 0.000, 10:37:22.319, 1583739442319
119, -26594.78, -32162.73, -20980.11, -16627.33, -20293.53, -21462.08, -24186.55, -23161.12, 0.000, 0.000, 0.000, 10:37:22.320, 1583739442320
120, -27240.74, -32241.70, -21140.10, -16795.82, -21067.66, -21595.92, -24539.22, -23516.94, 0.000, 0.000, 0.000, 10:37:22.320, 1583739442320
121, -27741.80, -32279.54, -21305.75, -16988.98, -21790.74, -21732.73, -24773.94, -23854.83, 0.000, 0.000, 0.000, 10:37:22.320, 1583739442320
122, -27455.41, -32245.18, -21248.44, -16907.26, -21461.45, -21657.77, -24585.60, -23714.55, 0.000, 0.000, 0.000, 10:37:22.320, 1583739442320
123, -26683.89, -32162.51, -21046.76, -16725.54, -20536.25, -21540.04, -24191.36, -23271.34, 0.000, -0.018, 0.972, 10:37:22.320, 1583739442320
124, -26606.33, -32183.36, -20990.28, -16642.46, -20300.72, -21472.36, -24194.73, -23168.37, 0.000, 0.000, 0.000, 10:37:22.321, 1583739442321
125, -27248.54, -32256.74, -21146.27, -16797.71, -21066.27, -21595.70, -24543.42, -23515.15, 0.000, 0.000, 0.000, 10:37:22.321, 1583739442321
126, -27747.25, -32288.21, -21305.23, -16980.75, -21787.47, -21726.16, -24776.08, -23849.15, 0.000, 0.000, 0.000, 10:37:22.321, 1583739442321
127, -27454.69, -32239.28, -21246.96, -16911.57, -21465.05, -21660.14, -24590.47, -23716.68, 0.000, 0.000, 0.000, 10:37:22.321, 1583739442321
128, -26677.25, -32152.56, -21048.06, -16739.42, -20544.63, -21547.08, -24197.13, -23276.53, 0.000, 0.000, 0.000, 10:37:22.321, 1583739442321
129, -26588.74, -32166.35, -20983.24, -16632.63, -20296.30, -21462.72, -24188.14, -23156.36, 0.000, 0.000, 0.000, 10:37:22.321, 1583739442321
130, -27226.08, -32233.61, -21135.21, -16783.48, -21056.79, -21584.72, -24535.38, -23501.38, 0.000, 0.000, 0.000, 10:37:22.322, 1583739442322
131, -27727.67, -32266.42, -21303.58, -16972.73, -21788.61, -21721.02, -24777.67, -23841.53, 0.000, 0.000, 0.000, 10:37:22.322, 1583739442322
132, -27436.03, -32218.47, -21248.39, -16903.55, -21470.88, -21652.85, -24592.13, -23708.25, 0.000, 0.000, 0.000, 10:37:22.322, 1583739442322
133, -26661.61, -32134.41, -21046.83, -16726.23, -20545.43, -21537.29, -24195.29, -23267.92, 0.002, -0.016, 0.970, 10:37:22.322, 1583739442322
134, -26571.53, -32146.90, -20984.06, -16625.85, -20295.92, -21457.32, -24186.80, -23151.02, 0.000, 0.000, 0.000, 10:37:22.322, 1583739442322
135, -27205.34, -32210.99, -21136.32, -16782.09, -21056.17, -21580.14, -24531.75, -23494.95, 0.000, 0.000, 0.000, 10:37:22.322, 1583739442322
136, -27704.79, -32242.52, -21299.16, -16971.54, -21785.31, -21715.10, -24768.50, -23833.15, 0.000, 0.000, 0.000, 10:37:22.322, 1583739442322
137, -27416.63, -32192.26, -21244.37, -16897.72, -21466.75, -21645.65, -24581.75, -23698.86, 0.000, 0.000, 0.000, 10:37:22.323, 1583739442323
138, -26644.37, -32109.64, -21041.91, -16724.31, -20538.88, -21532.02, -24187.11, -23259.69, 0.000, 0.000, 0.000, 10:37:22.323, 1583739442323
139, -26558.50, -32127.59, -20979.03, -16626.50, -20285.68, -21455.01, -24183.60, -23146.37, 0.000, 0.000, 0.000, 10:37:22.323, 1583739442323
140, -27192.95, -32184.54, -21130.60, -16778.47, -21043.45, -21575.60, -24528.54, -23489.65, 0.000, 0.000, 0.000, 10:37:22.323, 1583739442323
141, -27693.32, -32216.37, -21299.09, -16974.03, -21778.24, -21714.43, -24767.25, -23831.56, 0.000, 0.000, 0.000, 10:37:22.323, 1583739442323
142, -27411.64, -32184.19, -21238.31, -16895.50, -21457.94, -21642.68, -24578.40, -23697.92, 0.000, 0.000, 0.000, 10:37:22.323, 1583739442323
143, -26633.06, -32097.75, -21030.51, -16709.87, -20527.06, -21520.57, -24176.52, -23251.65, 0.008, -0.022, 0.970, 10:37:22.324, 1583739442324
144, -26537.09, -32106.63, -20966.92, -16612.44, -20270.86, -21440.62, -24165.21, -23133.70, 0.000, 0.000, 0.000, 10:37:22.324, 1583739442324
145, -27170.11, -32170.87, -21116.83, -16767.29, -21027.51, -21563.78, -24510.21, -23478.09, 0.000, 0.000, 0.000, 10:37:22.324, 1583739442324
146, -27675.33, -32197.89, -21285.28, -16962.49, -21766.66, -21704.62, -24754.42, -23822.47, 0.000, 0.000, 0.000, 10:37:22.324, 1583739442324
147, -27394.36, -32154.59, -21229.53, -16888.29, -21456.33, -21634.07, -24570.18, -23691.08, 0.000, 0.000, 0.000, 10:37:22.324, 1583739442324
148, -26616.54, -32069.52, -21032.52, -16715.88, -20531.69, -21522.90, -24173.88, -23252.59, 0.000, 0.000, 0.000, 10:37:22.325, 1583739442325
149, -26517.73, -32083.18, -20980.42, -16635.67, -20277.46, -21455.37, -24169.43, -23143.13, 0.000, 0.000, 0.000, 10:37:22.325, 1583739442325
150, -27149.77, -32149.61, -21127.40, -16774.56, -21033.04, -21569.81, -24512.80, -23481.85, 0.000, 0.000, 0.000, 10:37:22.325, 1583739442325
151, -27649.80, -32176.77, -21284.60, -16945.33, -21764.47, -21694.24, -24750.20, -23812.79, 0.000, 0.000, 0.000, 10:37:22.325, 1583739442325
152, -27369.02, -32129.56, -21231.52, -16875.66, -21455.33, -21626.45, -24568.43, -23682.32, 0.000, 0.000, 0.000, 10:37:22.325, 1583739442325
153, -26594.02, -32045.85, -21028.88, -16700.80, -20529.90, -21513.87, -24172.12, -23242.77, 0.004, -0.022, 0.968, 10:37:22.325, 1583739442325
154, -26491.29, -32056.29, -20963.61, -16608.35, -20268.36, -21439.66, -24158.95, -23126.48, 0.000, 0.000, 0.000, 10:37:22.326, 1583739442326
155, -27123.66, -32121.96, -21121.24, -16772.53, -21029.62, -21569.59, -24507.14, -23476.35, 0.000, 0.000, 0.000, 10:37:22.326, 1583739442326
156, -27628.63, -32150.84, -21289.07, -16963.16, -21766.73, -21706.81, -24748.83, -23818.58, 0.000, 0.000, 0.000, 10:37:22.326, 1583739442326
157, -27348.16, -32105.20, -21230.71, -16881.33, -21456.76, -21632.06, -24564.92, -23688.04, 0.000, 0.000, 0.000, 10:37:22.326, 1583739442326
158, -26569.88, -32019.90, -21031.72, -16711.42, -20536.36, -21522.45, -24172.16, -23251.94, 0.000, 0.000, 0.000, 10:37:22.326, 1583739442326
159, -26466.28, -32033.89, -20965.89, -16619.79, -20271.91, -21447.48, -24159.69, -23134.79, 0.000, 0.000, 0.000, 10:37:22.326, 1583739442326
160, -27097.04, -32097.37, -21115.85, -16768.19, -21023.29, -21564.49, -24502.92, -23474.09, 0.000, 0.000, 0.000, 10:37:22.327, 1583739442327
161, -27608.47, -32131.59, -21287.69, -16961.71, -21768.97, -21706.94, -24751.27, -23820.01, 0.000, 0.000, 0.000, 10:37:22.327, 1583739442327
162, -27335.04, -32089.93, -21232.19, -16886.32, -21467.78, -21637.25, -24571.43, -23694.79, 0.000, 0.000, 0.000, 10:37:22.327, 1583739442327
163, -26558.65, -32010.87, -21031.22, -16716.51, -20545.25, -21527.21, -24177.97, -23259.83, 0.004, -0.020, 0.970, 10:37:22.327, 1583739442327
164, -26453.76, -32023.25, -20963.72, -16611.97, -20274.17, -21444.40, -24163.62, -23136.00, 0.000, 0.000, 0.000, 10:37:22.327, 1583739442327
165, -27084.86, -32084.99, -21112.59, -16757.95, -21023.33, -21561.25, -24508.20, -23475.37, 0.000, 0.000, 0.000, 10:37:22.327, 1583739442327
166, -27595.35, -32118.05, -21284.00, -16960.44, -21769.37, -21709.31, -24756.05, -23824.79, 0.000, 0.000, 0.000, 10:37:22.328, 1583739442328
167, -27329.95, -32083.83, -21241.73, -16903.08, -21479.15, -21652.87, -24584.46, -23710.73, 0.000, 0.000, 0.000, 10:37:22.328, 1583739442328
168, -26550.79, -31993.50, -21037.91, -16714.21, -20553.08, -21531.93, -24186.31, -23267.83, 0.000, 0.000, 0.000, 10:37:22.328, 1583739442328
169, -26436.68, -32000.81, -20956.26, -16606.96, -20268.25, -21443.90, -24160.09, -23137.23, 0.000, 0.000, 0.000, 10:37:22.328, 1583739442328
170, -27067.89, -32067.69, -21114.22, -16770.54, -21021.57, -21571.24, -24511.08, -23481.94, 0.000, 0.000, 0.000, 10:37:22.328, 1583739442328
171, -27578.77, -32096.41, -21283.31, -16960.55, -21766.08, -21709.76, -24758.67, -23825.64, 0.000, 0.000, 0.000, 10:37:22.328, 1583739442328
172, -27311.21, -32049.52, -21229.11, -16881.13, -21469.23, -21636.18, -24581.02, -23699.78, 0.000, 0.000, 0.000, 10:37:22.328, 1583739442328
173, -26528.90, -31978.28, -21030.00, -16699.84, -20545.25, -21518.74, -24181.84, -23257.03, 0.004, -0.024, 0.972, 10:37:22.328, 1583739442328
174, -26414.20, -31986.57, -20966.29, -16603.12, -20269.86, -21442.25, -24164.85, -23133.88, 0.000, 0.000, 0.000, 10:37:22.329, 1583739442329
175, -27045.81, -32045.79, -21114.60, -16751.54, -21015.02, -21559.33, -24507.48, -23472.37, 0.000, 0.000, 0.000, 10:37:22.329, 1583739442329
176, -27560.48, -32082.51, -21275.87, -16943.67, -21754.21, -21694.47, -24747.63, -23813.71, 0.000, 0.000, 0.000, 10:37:22.329, 1583739442329
177, -27298.54, -32048.31, -21234.71, -16885.65, -21470.66, -21635.57, -24577.69, -23698.32, 0.000, 0.000, 0.000, 10:37:22.329, 1583739442329
178, -26519.38, -31958.84, -21032.07, -16706.86, -20546.86, -21519.57, -24177.08, -23256.59, 0.000, 0.000, 0.000, 10:37:22.329, 1583739442329
179, -26407.22, -31972.74, -20964.51, -16612.26, -20269.63, -21445.38, -24157.07, -23133.56, 0.000, 0.000, 0.000, 10:37:22.329, 1583739442329
180, -27039.17, -32050.72, -21117.44, -16766.13, -21017.28, -21569.12, -24504.48, -23476.10, 0.000, 0.000, 0.000, 10:37:22.329, 1583739442329
181, -27549.35, -32074.71, -21283.08, -16956.79, -21762.35, -21708.04, -24749.19, -23819.18, 0.000, 0.000, 0.000, 10:37:22.329, 1583739442329
182, -27284.75, -32027.77, -21235.30, -16895.08, -21474.71, -21645.25, -24576.53, -23701.39, 0.000, 0.000, 0.000, 10:37:22.330, 1583739442330
183, -26507.49, -31938.65, -21034.87, -16720.69, -20550.62, -21531.37, -24178.87, -23263.87, 0.000, 0.000, 0.000, 10:37:22.330, 1583739442330
184, -26389.88, -31957.88, -20962.36, -16607.14, -20261.79, -21443.68, -24155.62, -23130.30, 0.002, -0.022, 0.976, 10:37:22.330, 1583739442330
185, -27023.95, -32036.02, -21114.69, -16763.25, -21006.41, -21565.72, -24501.47, -23470.76, 0.000, 0.000, 0.000, 10:37:22.330, 1583739442330
186, -27534.78, -32062.35, -21280.89, -16958.63, -21754.37, -21704.59, -24746.15, -23814.26, 0.000, 0.000, 0.000, 10:37:22.330, 1583739442330
187, -27277.40, -32016.57, -21234.92, -16893.80, -21473.34, -21640.49, -24574.87, -23697.32, 0.000, 0.000, 0.000, 10:37:22.330, 1583739442330
188, -26501.43, -31937.98, -21037.57, -16717.58, -20553.79, -21527.01, -24178.15, -23258.46, 0.000, 0.000, 0.000, 10:37:22.330, 1583739442330
189, -26384.22, -31953.67, -20972.44, -16618.61, -20269.77, -21449.54, -24158.41, -23131.13, 0.000, 0.000, 0.000, 10:37:22.330, 1583739442330
190, -27014.50, -32025.33, -21122.60, -16777.49, -21013.05, -21573.23, -24506.45, -23474.40, 0.000, 0.000, 0.000, 10:37:22.331, 1583739442331
191, -27536.61, -32061.59, -21284.63, -16969.71, -21761.59, -21711.08, -24751.47, -23820.39, 0.000, 0.000, 0.000, 10:37:22.331, 1583739442331
192, -27284.59, -32024.35, -21237.02, -16895.08, -21482.60, -21641.47, -24579.74, -23703.06, 0.000, 0.000, 0.000, 10:37:22.331, 1583739442331
193, -26502.04, -31935.03, -21032.01, -16706.70, -20550.75, -21519.23, -24176.25, -23257.08, 0.000, 0.000, 0.000, 10:37:22.331, 1583739442331
194, -26382.17, -31949.47, -20964.42, -16614.95, -20264.45, -21445.36, -24154.90, -23131.62, 0.000, -0.018, 0.976, 10:37:22.331, 1583739442331
195, -27013.22, -32020.35, -21115.02, -16772.41, -21009.43, -21570.13, -24501.56, -23475.08, 0.000, 0.000, 0.000, 10:37:22.331, 1583739442331
196, -27535.31, -32060.27, -21283.84, -16965.44, -21762.15, -21712.95, -24752.48, -23824.68, 0.000, 0.000, 0.000, 10:37:22.331, 1583739442331
197, -27284.91, -32025.38, -21238.25, -16896.31, -21486.22, -21647.13, -24587.23, -23711.33, 0.000, 0.000, 0.000, 10:37:22.331, 1583739442331
198, -26506.69, -31940.66, -21040.52, -16724.45, -20563.87, -21535.05, -24189.79, -23273.75, 0.000, 0.000, 0.000, 10:37:22.332, 1583739442332
199, -26387.20, -31955.26, -20972.31, -16629.23, -20272.85, -21459.80, -24165.79, -23145.92, 0.000, 0.000, 0.000, 10:37:22.332, 1583739442332
200, -27015.12, -32024.75, -21115.78, -16768.68, -21007.26, -21572.00, -24505.31, -23479.63, 0.000, 0.000, 0.000, 10:37:22.332, 1583739442332
201, -27534.93, -32059.98, -21289.77, -16966.11, -21764.50, -21717.56, -24755.41, -23831.81, 0.000, 0.000, 0.000, 10:37:22.332, 1583739442332
202, -27287.70, -32022.92, -21248.10, -16906.90, -21494.51, -21658.71, -24592.66, -23724.68, 0.000, 0.000, 0.000, 10:37:22.332, 1583739442332
203, -26510.20, -31940.42, -21051.50, -16734.24, -20572.25, -21546.61, -24198.24, -23288.66, 0.000, 0.000, 0.000, 10:37:22.332, 1583739442332
204, -26382.90, -31954.03, -20982.12, -16632.87, -20277.01, -21467.20, -24171.38, -23155.42, 0.002, -0.022, 0.974, 10:37:22.332, 1583739442332
205, -27010.99, -32026.52, -21132.72, -16781.71, -21014.71, -21584.88, -24515.41, -23491.75, 0.000, 0.000, 0.000, 10:37:22.332, 1583739442332
206, -27534.69, -32059.75, -21299.76, -16976.35, -21771.58, -21725.47, -24763.70, -23839.92, 0.000, 0.000, 0.000, 10:37:22.333, 1583739442333
207, -27292.24, -32020.13, -21246.16, -16905.74, -21497.28, -21657.05, -24593.94, -23728.21, 0.000, 0.000, 0.000, 10:37:22.333, 1583739442333
208, -26517.10, -31940.51, -21048.57, -16725.50, -20574.87, -21542.21, -24196.19, -23290.34, 0.000, 0.000, 0.000, 10:37:22.333, 1583739442333
209, -26381.56, -31947.77, -20975.46, -16620.58, -20273.63, -21458.70, -24163.58, -23150.53, 0.000, 0.000, 0.000, 10:37:22.333, 1583739442333
210, -27007.10, -32017.02, -21119.38, -16766.89, -21003.67, -21572.99, -24504.15, -23482.61, 0.000, 0.000, 0.000, 10:37:22.333, 1583739442333
211, -27535.87, -32057.03, -21295.09, -16969.71, -21764.90, -21722.07, -24758.83, -23837.78, 0.000, 0.000, 0.000, 10:37:22.333, 1583739442333
212, -27295.08, -32022.92, -21253.51, -16911.98, -21502.42, -21663.02, -24595.95, -23733.35, 0.000, 0.000, 0.000, 10:37:22.790, 1583739442790
213, -26511.45, -31935.32, -21052.53, -16742.51, -20578.74, -21550.97, -24196.39, -23293.60, 0.000, 0.000, 0.000, 10:37:22.791, 1583739442791
214, -26375.79, -31946.39, -20981.54, -16642.13, -20276.63, -21473.57, -24168.40, -23158.78, 0.006, -0.022, 0.976, 10:37:22.791, 1583739442791
215, -27003.12, -32017.80, -21128.03, -16780.37, -21004.00, -21585.73, -24510.54, -23491.62, 0.000, 0.000, 0.000, 10:37:22.791, 1583739442791
216, -27536.54, -32058.14, -21297.05, -16977.87, -21766.53, -21731.13, -24765.98, -23844.66, 0.000, 0.000, 0.000, 10:37:22.792, 1583739442792
217, -27301.85, -32027.17, -21257.49, -16916.65, -21509.13, -21670.17, -24606.14, -23740.14, 0.000, 0.000, 0.000, 10:37:22.792, 1583739442792
218, -26521.10, -31941.89, -21055.63, -16740.27, -20582.98, -21553.88, -24204.05, -23301.25, 0.000, 0.000, 0.000, 10:37:22.792, 1583739442792
219, -26379.39, -31956.09, -20978.32, -16636.45, -20274.73, -21470.46, -24170.46, -23158.73, 0.000, 0.000, 0.000, 10:37:22.792, 1583739442792
220, -27002.92, -32025.27, -21125.57, -16778.92, -21005.21, -21583.13, -24515.44, -23491.35, 0.000, 0.000, 0.000, 10:37:22.792, 1583739442792
221, -27536.48, -32059.78, -21294.62, -16966.96, -21766.75, -21724.51, -24768.68, -23841.58, 0.000, 0.000, 0.000, 10:37:22.796, 1583739442796
222, -27302.63, -32026.99, -21249.89, -16896.73, -21506.40, -21657.14, -24602.77, -23732.99, 0.000, 0.000, 0.000, 10:37:22.797, 1583739442797
223, -26522.11, -31942.05, -21049.49, -16724.22, -20578.15, -21542.65, -24198.40, -23291.70, 0.000, 0.000, 0.000, 10:37:22.797, 1583739442797
224, -26378.52, -31952.62, -20974.05, -16624.56, -20265.88, -21461.85, -24161.34, -23149.54, 0.006, -0.020, 0.972, 10:37:22.797, 1583739442797
225, -26998.49, -32021.87, -21121.66, -16774.63, -20992.00, -21580.47, -24503.90, -23483.99, 0.000, 0.000, 0.000, 10:37:22.797, 1583739442797
226, -27526.78, -32055.80, -21296.61, -16979.95, -21761.63, -21732.29, -24761.62, -23842.74, 0.000, 0.000, 0.000, 10:37:22.797, 1583739442797
227, -27289.04, -32018.11, -21245.76, -16905.41, -21500.05, -21660.20, -24595.10, -23732.70, 0.000, 0.000, 0.000, 10:37:22.797, 1583739442797
228, -26510.20, -31931.25, -21045.51, -16723.96, -20573.53, -21541.63, -24191.87, -23290.76, 0.000, 0.000, 0.000, 10:37:22.797, 1583739442797
229, -26366.16, -31934.49, -20969.98, -16620.42, -20260.67, -21459.71, -24155.44, -23147.11, 0.000, 0.000, 0.000, 10:37:22.798, 1583739442798
230, -26991.76, -32013.08, -21117.50, -16764.52, -20986.48, -21574.73, -24500.77, -23481.85, 0.000, 0.000, 0.000, 10:37:22.798, 1583739442798
231, -27526.20, -32054.08, -21292.38, -16969.38, -21759.45, -21725.09, -24759.85, -23838.96, 0.000, 0.000, 0.000, 10:37:22.798, 1583739442798
232, -27297.00, -32021.42, -21248.62, -16907.75, -21504.88, -21661.23, -24600.20, -23735.67, 0.000, 0.000, 0.000, 10:37:22.798, 1583739442798
233, -26519.32, -31938.76, -21044.90, -16721.96, -20576.03, -21540.06, -24196.68, -23290.83, 0.000, 0.000, 0.000, 10:37:22.798, 1583739442798
234, -26375.84, -31954.70, -20967.75, -16616.91, -20259.31, -21455.97, -24157.79, -23144.61, 0.004, -0.020, 0.968, 10:37:22.798, 1583739442798
235, -26999.50, -32027.97, -21115.89, -16765.73, -20983.62, -21572.45, -24502.27, -23477.42, 0.000, 0.000, 0.000, 10:37:22.798, 1583739442798
236, -27530.44, -32060.18, -21290.39, -16967.41, -21756.05, -21720.69, -24761.46, -23833.69, 0.000, 0.000, 0.000, 10:37:22.798, 1583739442798
237, -27306.43, -32029.47, -21253.74, -16909.74, -21517.02, -21663.96, -24608.17, -23737.19, 0.000, 0.000, 0.000, 10:37:22.799, 1583739442799
238, -26525.33, -31948.44, -21053.22, -16730.32, -20591.25, -21547.30, -24204.08, -23295.99, 0.000, 0.000, 0.000, 10:37:22.799, 1583739442799
239, -26372.58, -31954.81, -20977.63, -16631.13, -20269.01, -21466.64, -24163.82, -23149.63, 0.000, 0.000, 0.000, 10:37:22.799, 1583739442799
240, -26990.76, -32018.02, -21118.62, -16773.73, -20986.74, -21577.39, -24500.75, -23478.74, 0.000, 0.000, 0.000, 10:37:22.799, 1583739442799
241, -27526.98, -32055.80, -21289.97, -16968.35, -21754.33, -21721.47, -24756.95, -23833.40, 0.000, 0.000, 0.000, 10:37:22.799, 1583739442799
242, -27302.12, -32022.94, -21245.58, -16904.27, -21506.11, -21657.03, -24597.11, -23733.01, 0.000, 0.000, 0.000, 10:37:22.799, 1583739442799
243, -26518.20, -31937.45, -21039.56, -16721.83, -20576.93, -21535.77, -24189.68, -23288.26, 0.000, 0.000, 0.000, 10:37:22.799, 1583739442799
244, -26362.79, -31942.41, -20961.06, -16610.27, -20251.73, -21447.48, -24146.03, -23136.67, 0.006, -0.016, 0.970, 10:37:22.799, 1583739442799
245, -26983.81, -32014.38, -21103.38, -16748.12, -20969.87, -21558.37, -24486.58, -23466.02, 0.000, 0.000, 0.000, 10:37:22.800, 1583739442800
246, -27524.38, -32056.89, -21283.11, -16956.39, -21748.34, -21714.99, -24746.17, -23828.84, 0.000, 0.000, 0.000, 10:37:22.800, 1583739442800
247, -27300.02, -32019.23, -21244.08, -16897.20, -21506.67, -21654.91, -24590.94, -23729.30, 0.000, 0.000, 0.000, 10:37:22.800, 1583739442800
248, -26520.21, -31934.27, -21047.23, -16726.21, -20585.49, -21543.13, -24191.34, -23291.84, 0.000, 0.000, 0.000, 10:37:22.800, 1583739442800
249, -26368.62, -31950.61, -20972.26, -16626.05, -20259.42, -21463.98, -24153.32, -23147.38, 0.000, 0.000, 0.000, 10:37:22.800, 1583739442800
250, -26987.65, -32019.34, -21111.60, -16756.92, -20972.44, -21569.46, -24494.14, -23470.65, 0.000, 0.000, 0.000, 10:37:22.800, 1583739442800
251, -27528.34, -32054.21, -21283.76, -16960.59, -21748.96, -21718.61, -24754.71, -23826.98, 0.000, 0.000, 0.000, 10:37:22.800, 1583739442800
252, -27308.69, -32019.59, -21243.63, -16904.78, -21511.83, -21659.40, -24600.20, -23731.54, 0.000, 0.000, 0.000, 10:37:22.800, 1583739442800
253, -26531.12, -31943.53, -21046.74, -16728.85, -20591.77, -21544.00, -24202.74, -23293.36, 0.000, 0.000, 0.000, 10:37:22.801, 1583739442801
254, -26370.32, -31951.46, -20965.44, -16614.99, -20259.13, -21453.94, -24157.18, -23137.68, 0.006, -0.014, 0.970, 10:37:22.801, 1583739442801
255, -26987.47, -32022.16, -21112.07, -16755.96, -20975.14, -21565.95, -24497.60, -23464.75, 0.000, 0.000, 0.000, 10:37:22.801, 1583739442801
0, -27530.44, -32062.77, -21290.01, -16967.59, -21759.74, -21722.74, -24763.47, -23829.73, 0.000, 0.000, 0.000, 10:37:22.801, 1583739442801
1, -27311.71, -32028.01, -21251.08, -16908.56, -21526.49, -21660.87, -24610.97, -23735.29, 0.000, 0.000, 0.000, 10:37:22.801, 1583739442801
2, -26530.34, -31938.83, -21050.49, -16729.92, -20599.84, -21543.44, -24207.63, -23293.65, 0.000, 0.000, 0.000, 10:37:22.801, 1583739442801
3, -26370.14, -31948.29, -20975.05, -16625.56, -20269.10, -21462.30, -24166.24, -23143.11, 0.000, 0.000, 0.000, 10:37:22.801, 1583739442801
4, -26986.98, -32019.61, -21123.34, -16767.96, -20985.87, -21573.77, -24509.20, -23469.82, 0.000, 0.000, 0.000, 10:37:22.802, 1583739442802
5, -27523.15, -32048.58, -21296.65, -16966.49, -21766.13, -21722.54, -24767.99, -23828.50, 0.000, 0.000, 0.000, 10:37:22.802, 1583739442802
6, -27303.79, -32011.54, -21251.97, -16896.98, -21528.91, -21653.50, -24609.65, -23730.20, 0.000, 0.000, 0.000, 10:37:22.802, 1583739442802
7, -26523.76, -31927.83, -21045.64, -16718.14, -20598.79, -21534.47, -24203.12, -23288.39, 0.000, 0.000, 0.000, 10:37:22.802, 1583739442802
8, -26360.55, -31938.52, -20966.29, -16612.75, -20260.00, -21450.48, -24155.26, -23133.61, 0.006, -0.018, 0.974, 10:37:22.802, 1583739442802
9, -26975.96, -32014.71, -21110.42, -16756.01, -20972.24, -21562.82, -24495.10, -23460.77, 0.000, 0.000, 0.000, 10:37:22.802, 1583739442802
10, -27517.70, -32048.96, -21283.78, -16960.10, -21751.94, -21711.99, -24753.39, -23818.58, 0.000, 0.000, 0.000, 10:37:22.802, 1583739442802
11, -27309.58, -32016.46, -21245.69, -16900.64, -21522.94, -21651.11, -24602.50, -23727.63, 0.000, 0.000, 0.000, 10:37:22.802, 1583739442802
12, -26526.69, -31929.71, -21043.41, -16720.76, -20595.77, -21532.44, -24196.14, -23286.29, 0.000, 0.000, 0.000, 10:37:22.802, 1583739442802
13, -26361.22, -31941.11, -20965.76, -16621.03, -20258.37, -21454.08, -24151.04, -23136.31, 0.000, 0.000, 0.000, 10:37:22.804, 1583739442804
14, -26976.12, -32010.33, -21108.94, -16759.16, -20966.94, -21563.02, -24493.09, -23460.81, 0.000, 0.000, 0.000, 10:37:22.804, 1583739442804
15, -27516.58, -32043.82, -21283.13, -16959.45, -21748.04, -21711.61, -24758.13, -23819.65, 0.000, 0.000, 0.000, 10:37:22.804, 1583739442804
16, -27310.93, -32013.04, -21252.69, -16906.50, -21526.83, -21656.52, -24613.54, -23734.42, 0.000, 0.000, 0.000, 10:37:22.805, 1583739442805
17, -26534.18, -31930.67, -21059.84, -16737.75, -20607.35, -21547.15, -24215.81, -23301.71, 0.000, 0.000, 0.000, 10:37:22.805, 1583739442805
18, -26359.46, -31935.95, -20978.77, -16636.16, -20267.42, -21467.20, -24166.44, -23146.24, 0.000, 0.000, 0.000, 10:37:22.805, 1583739442805
19, -26970.66, -32005.42, -21118.11, -16770.67, -20972.64, -21575.85, -24502.85, -23469.67, 0.004, -0.018, 0.976, 10:37:22.805, 1583739442805
20, -27513.92, -32046.34, -21287.87, -16961.04, -21752.18, -21719.01, -24761.11, -23827.05, 0.000, 0.000, 0.000, 10:37:22.805, 1583739442805
21, -27310.32, -32018.18, -21252.17, -16901.74, -21529.69, -21658.64, -24614.34, -23741.15, 0.000, 0.000, 0.000, 10:37:22.806, 1583739442806
22, -26528.73, -31930.83, -21054.38, -16727.64, -20607.32, -21544.18, -24211.21, -23303.39, 0.000, 0.000, 0.000, 10:37:22.806, 1583739442806
23, -26357.56, -31940.75, -20975.48, -16628.45, -20264.85, -21465.88, -24161.50, -23149.25, 0.000, 0.000, 0.000, 10:37:22.806, 1583739442806
24, -26968.63, -32013.66, -21112.25, -16754.51, -20965.85, -21565.63, -24497.20, -23465.93, 0.000, 0.000, 0.000, 10:37:22.806, 1583739442806
25, -27513.25, -32049.99, -21286.73, -16953.15, -21750.79, -21711.37, -24762.00, -23825.08, 0.000, 0.000, 0.000, 10:37:22.806, 1583739442806
26, -27315.04, -32016.19, -21255.28, -16900.38, -21534.52, -21654.73, -24620.13, -23739.81, 0.000, 0.000, 0.000, 10:37:22.806, 1583739442806
27, -26534.60, -31931.57, -21057.44, -16726.66, -20610.48, -21541.27, -24216.97, -23301.49, 0.000, 0.000, 0.000, 10:37:22.807, 1583739442807
28, -26355.10, -31935.03, -20973.56, -16622.57, -20259.49, -21457.54, -24160.38, -23142.12, 0.000, 0.000, 0.000, 10:37:22.807, 1583739442807
29, -26962.04, -32003.70, -21111.47, -16753.10, -20957.96, -21558.50, -24493.98, -23459.12, 0.000, -0.020, 0.976, 10:37:22.807, 1583739442807
30, -27508.04, -32036.91, -21280.20, -16948.57, -21741.68, -21703.63, -24755.58, -23817.21, 0.000, 0.000, 0.000, 10:37:22.807, 1583739442807
31, -27307.39, -32006.94, -21241.02, -16896.51, -21523.41, -21646.77, -24608.06, -23734.15, 0.000, 0.000, 0.000, 10:37:22.807, 1583739442807
32, -26531.23, -31928.17, -21048.39, -16723.48, -20604.40, -21534.63, -24207.86, -23297.71, 0.000, 0.000, 0.000, 10:37:22.807, 1583739442807
33, -26357.94, -31937.83, -20972.22, -16620.80, -20256.87, -21456.02, -24156.07, -23141.74, 0.000, 0.000, 0.000, 10:37:22.807, 1583739442807
34, -26964.85, -32008.30, -21105.84, -16751.31, -20952.73, -21558.50, -24487.74, -23458.11, 0.000, 0.000, 0.000, 10:37:22.807, 1583739442807
35, -27512.52, -32046.57, -21281.47, -16955.83, -21741.34, -21710.83, -24752.66, -23821.84, 0.000, 0.000, 0.000, 10:37:22.808, 1583739442808
36, -27312.51, -32012.66, -21249.56, -16903.48, -21532.04, -21655.40, -24609.94, -23740.26, 0.000, 0.000, 0.000, 10:37:22.808, 1583739442808
37, -26536.26, -31931.10, -21055.99, -16733.97, -20614.66, -21547.62, -24211.83, -23308.49, 0.000, 0.000, 0.000, 10:37:22.808, 1583739442808
38, -26353.96, -31937.67, -20973.00, -16622.19, -20259.13, -21462.64, -24155.24, -23145.61, 0.000, 0.000, 0.000, 10:37:22.808, 1583739442808
39, -26960.65, -32002.69, -21106.84, -16746.08, -20953.20, -21560.22, -24489.55, -23458.58, 0.002, -0.022, 0.968, 10:37:22.808, 1583739442808
40, -27509.32, -32040.76, -21281.83, -16952.93, -21742.26, -21713.13, -24754.33, -23821.82, 0.000, 0.000, 0.000, 10:37:22.808, 1583739442808
41, -27321.21, -32016.44, -21257.98, -16914.48, -21543.73, -21666.60, -24618.59, -23749.09, 0.000, 0.000, 0.000, 10:37:22.808, 1583739442808
42, -26541.11, -31931.19, -21056.88, -16734.08, -20619.91, -21548.62, -24214.16, -23309.83, 0.000, 0.000, 0.000, 10:37:22.808, 1583739442808
43, -26353.69, -31935.19, -20969.02, -16613.47, -20256.74, -21456.51, -24151.77, -23140.80, 0.000, 0.000, 0.000, 10:37:22.808, 1583739442808
44, -26957.66, -32001.26, -21100.36, -16738.42, -20945.26, -21555.89, -24482.29, -23454.78, 0.000, 0.000, 0.000, 10:37:22.809, 1583739442809
45, -27508.67, -32041.13, -21279.78, -16950.38, -21740.18, -21712.62, -24753.86, -23823.47, 0.000, 0.000, 0.000, 10:37:22.809, 1583739442809
46, -27318.10, -32010.63, -21253.20, -16905.21, -21541.87, -21659.42, -24618.19, -23748.64, 0.000, 0.000, 0.000, 10:37:22.809, 1583739442809
47, -26539.07, -31924.53, -21051.30, -16728.96, -20618.01, -21542.97, -24214.38, -23310.48, 0.000, 0.000, 0.000, 10:37:22.809, 1583739442809
48, -26342.80, -31923.14, -20958.49, -16615.04, -20246.66, -21451.62, -24147.57, -23136.54, 0.000, 0.000, 0.000, 10:37:22.809, 1583739442809
49, -26953.01, -31995.94, -21104.16, -16750.78, -20939.81, -21557.45, -24484.70, -23453.73, 0.006, -0.020, 0.970, 10:37:22.809, 1583739442809
50, -27508.45, -32031.61, -21284.96, -16953.62, -21737.23, -21708.97, -24754.56, -23818.00, 0.000, 0.000, 0.000, 10:37:22.809, 1583739442809
51, -27318.97, -32000.14, -21248.91, -16900.31, -21535.46, -21652.69, -24615.26, -23739.76, 0.000, 0.000, 0.000, 10:37:22.809, 1583739442809
52, -26538.29, -31915.94, -21043.25, -16724.78, -20609.94, -21537.98, -24209.71, -23301.63, 0.000, 0.000, 0.000, 10:37:22.810, 1583739442810
53, -26343.32, -31920.08, -20957.29, -16605.78, -20243.04, -21446.01, -24148.13, -23129.03, 0.000, 0.000, 0.000, 10:37:22.810, 1583739442810
54, -26950.21, -31994.26, -21091.69, -16730.71, -20928.41, -21544.87, -24481.71, -23441.44, 0.000, 0.000, 0.000, 10:37:22.810, 1583739442810
55, -27506.66, -32034.45, -21269.27, -16941.53, -21726.45, -21699.90, -24749.53, -23808.05, 0.000, 0.000, 0.000, 10:37:22.813, 1583739442813
56, -27321.56, -32004.97, -21240.15, -16894.77, -21534.25, -21645.79, -24612.24, -23732.95, 0.000, 0.000, 0.000, 10:37:22.814, 1583739442814
57, -26540.08, -31920.70, -21039.63, -16715.13, -20610.23, -21527.63, -24205.13, -23292.17, 0.000, 0.000, 0.000, 10:37:22.814, 1583739442814
58, -26341.31, -31925.29, -20957.80, -16607.41, -20238.01, -21443.48, -24142.16, -23123.68, 0.000, 0.000, 0.000, 10:37:22.814, 1583739442814
59, -26946.84, -31995.09, -21095.29, -16737.48, -20924.45, -21546.46, -24478.33, -23439.31, 0.004, -0.026, 0.978, 10:37:22.814, 1583739442814
60, -27502.70, -32028.64, -21271.37, -16942.42, -21724.38, -21699.83, -24749.75, -23806.11, 0.000, 0.000, 0.000, 10:37:22.814, 1583739442814
61, -27315.66, -31994.93, -21241.64, -16890.30, -21530.63, -21642.79, -24611.48, -23730.20, 0.000, 0.000, 0.000, 10:37:22.814, 1583739442814
62, -26537.49, -31917.53, -21051.70, -16725.34, -20616.18, -21535.17, -24213.96, -23300.04, 0.000, 0.000, 0.000, 10:37:22.815, 1583739442815
63, -26336.63, -31920.50, -20963.05, -16615.35, -20244.42, -21449.11, -24148.73, -23129.29, 0.000, 0.000, 0.000, 10:37:22.815, 1583739442815
64, -26944.15, -31989.64, -21096.51, -16737.30, -20926.37, -21546.50, -24480.48, -23440.23, 0.000, 0.000, 0.000, 10:37:22.815, 1583739442815
65, -27506.32, -32033.38, -21272.36, -16938.60, -21723.95, -21696.99, -24749.28, -23804.47, 0.000, 0.000, 0.000, 10:37:22.815, 1583739442815
66, -27329.30, -32007.21, -21243.90, -16890.45, -21534.54, -21641.85, -24613.81, -23730.87, 0.000, 0.000, 0.000, 10:37:22.815, 1583739442815
67, -26550.56, -31920.73, -21045.17, -16718.03, -20614.54, -21528.37, -24209.49, -23294.70, 0.000, 0.000, 0.000, 10:37:22.815, 1583739442815
68, -26352.62, -31928.26, -20961.78, -16610.01, -20242.63, -21447.01, -24146.19, -23124.80, 0.000, 0.000, 0.000, 10:37:22.815, 1583739442815
69, -26957.52, -32003.67, -21100.31, -16737.48, -20927.87, -21549.63, -24481.62, -23439.58, 0.004, -0.020, 0.974, 10:37:22.815, 1583739442815
70, -27515.42, -32042.79, -21276.18, -16947.05, -21729.14, -21704.24, -24752.12, -23806.87, 0.000, 0.000, 0.000, 10:37:22.816, 1583739442816
71, -27336.99, -32012.10, -21247.39, -16904.04, -21545.34, -21650.81, -24618.14, -23736.37, 0.000, 0.000, 0.000, 10:37:22.816, 1583739442816
72, -26560.29, -31927.95, -21055.97, -16736.00, -20629.45, -21541.25, -24218.72, -23303.73, 0.000, 0.000, 0.000, 10:37:22.816, 1583739442816
73, -26359.21, -31935.81, -20971.05, -16623.19, -20250.72, -21454.90, -24152.71, -23130.86, 0.000, 0.000, 0.000, 10:37:22.816, 1583739442816
74, -26957.39, -32006.63, -21096.63, -16733.57, -20921.72, -21542.48, -24479.56, -23435.33, 0.000, 0.000, 0.000, 10:37:22.816, 1583739442816
75, -27515.98, -32039.41, -21264.42, -16931.27, -21720.33, -21689.71, -24746.55, -23797.63, 0.000, 0.000, 0.000, 10:37:22.816, 1583739442816
76, -27342.57, -32008.30, -21241.67, -16887.90, -21542.43, -21638.59, -24618.72, -23729.08, 0.000, 0.000, 0.000, 10:37:23.271, 1583739443271
77, -26565.09, -31924.39, -21046.67, -16714.43, -20621.96, -21525.00, -24219.08, -23293.76, 0.000, 0.000, 0.000, 10:37:23.272, 1583739443272
