%OpenBCI Raw EEG Data
%Number of channels = 8
%Sample Rate = 250.0 Hz
%First Column = SampleIndex
%Last Column = Timestamp 
%Other Columns = EEG data in microvolts followed by Accel Data (in G) interleaved with Aux Data
0, 0.00, 0.00, 0.00, 0.00, 0.00, 0.00, 0.00, 0.00, 0.000, 0.000, 0.000, 10:47:19.556, 1583740039556
1, -24622.46, -29966.13, -19061.28, -15473.04, -17498.60, -20592.39, -22678.21, -20844.63, 0.000, -0.018, 0.968, 10:47:20.037, 1583740040037
2, -24959.83, -30022.79, -19104.19, -15490.14, -17760.49, -20602.63, -22858.79, -20969.51, 0.000, 0.000, 0.000, 10:47:20.038, 1583740040038
3, -25511.61, -30083.19, -19232.07, -15604.18, -18398.70, -20647.24, -23122.83, -21255.55, 0.000, 0.000, 0.000, 10:47:20.038, 1583740040038
4, -25626.54, -30081.11, -19273.24, -15635.67, -18557.54, -20655.29, -23157.55, -21334.34, 0.000, 0.000, 0.000, 10:47:20.038, 1583740040038
5, -25065.54, -30003.75, -19162.22, -15550.62, -17994.05, -20619.51, -22874.37, -21074.14, 0.000, 0.000, 0.000, 10:47:20.038, 1583740040038
6, -24619.95, -29957.91, -19061.66, -15475.48, -17501.13, -20594.27, -22681.30, -20845.88, 0.000, 0.000, 0.000, 10:47:20.038, 1583740040038
7, -24956.37, -30010.99, -19106.58, -15492.40, -17761.97, -20603.90, -22861.83, -20969.82, 0.000, 0.000, 0.000, 10:47:20.039, 1583740040039
8, -25508.48, -30072.04, -19230.68, -15604.18, -18395.46, -20646.64, -23118.39, -21253.02, -0.004, -0.020, 0.962, 10:47:20.039, 1583740040039
9, -25628.91, -30073.62, -19270.06, -15636.88, -18552.21, -20655.04, -23151.98, -21332.15, 0.000, 0.000, 0.000, 10:47:20.039, 1583740040039
10, -25072.00, -30005.56, -19162.08, -15554.85, -17993.47, -20622.30, -22873.75, -21076.91, 0.000, 0.000, 0.000, 10:47:20.042, 1583740040042
11, -24627.20, -29966.18, -19065.50, -15480.37, -17501.06, -20599.19, -22681.90, -20850.13, 0.000, 0.000, 0.000, 10:47:20.043, 1583740040043
12, -24964.71, -30023.73, -19110.47, -15497.78, -17761.95, -20610.77, -22864.29, -20974.92, 0.000, 0.000, 0.000, 10:47:20.043, 1583740040043
13, -25510.92, -30076.91, -19228.15, -15601.43, -18393.09, -20647.29, -23118.95, -21253.85, 0.000, 0.000, 0.000, 10:47:20.043, 1583740040043
14, -25628.89, -30075.99, -19265.77, -15628.12, -18555.37, -20650.53, -23152.63, -21331.32, 0.000, 0.000, 0.000, 10:47:20.043, 1583740040043
15, -25080.36, -30013.52, -19164.61, -15547.67, -18003.19, -20618.28, -22878.55, -21077.31, 0.000, 0.000, 0.000, 10:47:20.043, 1583740040043
16, -24626.82, -29971.83, -19068.32, -15477.67, -17506.91, -20596.13, -22685.43, -20848.77, 0.000, 0.000, 0.000, 10:47:20.043, 1583740040043
17, -24950.51, -30021.50, -19109.33, -15492.84, -17758.91, -20605.38, -22862.88, -20967.57, 0.000, 0.000, 0.000, 10:47:20.044, 1583740040044
18, -25504.30, -30085.47, -19230.72, -15596.02, -18395.40, -20644.09, -23120.17, -21248.10, 0.000, -0.018, 0.966, 10:47:20.044, 1583740040044
19, -25635.46, -30088.84, -19273.33, -15625.59, -18562.72, -20650.20, -23158.93, -21332.19, 0.000, 0.000, 0.000, 10:47:20.044, 1583740040044
20, -25080.20, -30012.09, -19167.18, -15544.54, -18006.07, -20616.62, -22880.72, -21076.60, 0.000, 0.000, 0.000, 10:47:20.044, 1583740040044
21, -24628.65, -29967.90, -19067.18, -15470.71, -17507.88, -20593.06, -22686.44, -20846.78, 0.000, 0.000, 0.000, 10:47:20.044, 1583740040044
22, -24951.90, -30018.26, -19108.66, -15489.24, -17756.20, -20604.60, -22864.83, -20965.38, 0.000, 0.000, 0.000, 10:47:20.044, 1583740040044
23, -25504.52, -30078.00, -19234.59, -15603.55, -18394.32, -20648.96, -23125.45, -21249.60, 0.000, 0.000, 0.000, 10:47:20.045, 1583740040045
24, -25632.04, -30083.41, -19276.35, -15633.17, -18563.66, -20653.95, -23161.26, -21331.88, 0.000, 0.000, 0.000, 10:47:20.045, 1583740040045
25, -25079.48, -30005.52, -19167.80, -15548.34, -18008.38, -20616.22, -22880.97, -21074.61, 0.000, 0.000, 0.000, 10:47:20.045, 1583740040045
26, -24619.55, -29962.42, -19063.60, -15471.21, -17500.50, -20588.21, -22677.79, -20838.69, 0.000, 0.000, 0.000, 10:47:20.045, 1583740040045
27, -24945.66, -30028.65, -19105.76, -15495.46, -17749.83, -20603.90, -22854.81, -20959.43, 0.000, 0.000, 0.000, 10:47:20.045, 1583740040045
28, -25499.32, -30087.35, -19225.29, -15599.59, -18382.70, -20641.88, -23115.37, -21240.39, 0.000, -0.018, 0.970, 10:47:20.046, 1583740040046
29, -25627.08, -30079.37, -19261.62, -15615.60, -18552.33, -20638.84, -23154.19, -21319.90, 0.000, 0.000, 0.000, 10:47:20.046, 1583740040046
30, -25086.79, -30011.62, -19161.05, -15539.63, -18008.42, -20610.68, -22882.75, -21073.74, 0.000, 0.000, 0.000, 10:47:20.046, 1583740040046
31, -24627.62, -29972.77, -19062.08, -15473.71, -17507.47, -20591.52, -22682.86, -20844.86, 0.000, 0.000, 0.000, 10:47:20.047, 1583740040047
32, -24945.19, -30026.91, -19105.26, -15496.29, -17749.90, -20606.45, -22856.02, -20963.77, 0.000, 0.000, 0.000, 10:47:20.047, 1583740040047
33, -25497.24, -30081.02, -19226.43, -15606.68, -18383.79, -20648.05, -23117.58, -21248.39, 0.000, 0.000, 0.000, 10:47:20.047, 1583740040047
34, -25629.11, -30076.04, -19265.15, -15628.21, -18557.11, -20649.28, -23158.17, -21333.33, 0.000, 0.000, 0.000, 10:47:20.047, 1583740040047
35, -25081.52, -30008.65, -19156.58, -15535.15, -18007.30, -20608.17, -22878.78, -21075.71, 0.000, 0.000, 0.000, 10:47:20.047, 1583740040047
36, -24621.25, -29970.96, -19056.25, -15467.54, -17502.33, -20587.23, -22677.95, -20842.02, 0.000, 0.000, 0.000, 10:47:20.048, 1583740040048
37, -24941.39, -30022.50, -19098.43, -15491.79, -17741.81, -20603.90, -22853.59, -20961.17, 0.000, 0.000, 0.000, 10:47:20.048, 1583740040048
38, -25498.60, -30081.92, -19225.67, -15604.13, -18382.54, -20649.88, -23121.36, -21249.22, 0.000, -0.016, 0.974, 10:47:20.048, 1583740040048
39, -25633.63, -30085.49, -19270.04, -15634.93, -18563.41, -20654.89, -23165.84, -21337.31, 0.000, 0.000, 0.000, 10:47:20.048, 1583740040048
40, -25088.09, -30015.35, -19164.25, -15547.02, -18015.17, -20619.30, -22890.35, -21083.21, 0.000, 0.000, 0.000, 10:47:20.048, 1583740040048
41, -24616.71, -29966.00, -19061.19, -15469.75, -17504.23, -20593.31, -22685.43, -20845.88, 0.000, 0.000, 0.000, 10:47:20.049, 1583740040049
42, -24925.12, -30014.93, -19096.37, -15479.95, -17733.74, -20599.37, -22851.46, -20954.42, 0.000, 0.000, 0.000, 10:47:20.049, 1583740040049
43, -25489.57, -30076.78, -19217.74, -15588.35, -18370.94, -20640.25, -23112.37, -21236.88, 0.000, 0.000, 0.000, 10:47:20.049, 1583740040049
44, -25635.77, -30083.08, -19263.34, -15623.91, -18555.57, -20647.80, -23159.45, -21327.95, 0.000, 0.000, 0.000, 10:47:20.049, 1583740040049
45, -25090.64, -30007.46, -19157.88, -15543.20, -18010.01, -20612.42, -22883.36, -21074.99, 0.000, 0.000, 0.000, 10:47:20.049, 1583740040049
46, -24617.83, -29963.79, -19053.52, -15469.84, -17499.18, -20587.36, -22674.50, -20836.65, 0.000, 0.000, 0.000, 10:47:20.049, 1583740040049
47, -24928.45, -30012.94, -19090.96, -15477.67, -17730.23, -20593.58, -22842.63, -20945.13, 0.000, 0.000, 0.000, 10:47:20.050, 1583740040050
48, -25485.48, -30072.84, -19215.32, -15585.96, -18368.04, -20635.17, -23108.46, -21228.52, 0.000, -0.018, 0.974, 10:47:20.050, 1583740040050
49, -25629.27, -30078.72, -19261.53, -15621.83, -18555.12, -20642.89, -23157.21, -21319.63, 0.000, 0.000, 0.000, 10:47:20.050, 1583740040050
50, -25092.43, -30015.78, -19158.75, -15541.12, -18015.21, -20609.18, -22885.59, -21071.23, 0.000, 0.000, 0.000, 10:47:20.050, 1583740040050
51, -24621.65, -29974.61, -19056.13, -15464.70, -17500.57, -20583.01, -22676.31, -20832.29, 0.000, 0.000, 0.000, 10:47:20.050, 1583740040050
52, -24919.71, -30021.12, -19085.97, -15469.02, -17722.16, -20583.90, -22837.49, -20934.73, 0.000, 0.000, 0.000, 10:47:20.050, 1583740040050
53, -25475.49, -30080.48, -19206.27, -15575.10, -18356.97, -20623.82, -23101.55, -21218.20, 0.000, 0.000, 0.000, 10:47:20.051, 1583740040051
54, -25630.52, -30081.69, -19252.29, -15612.22, -18548.06, -20632.60, -23150.06, -21313.91, 0.000, 0.000, 0.000, 10:47:20.051, 1583740040051
55, -25102.53, -30014.28, -19154.64, -15540.38, -18013.38, -20605.96, -22882.84, -21073.54, 0.000, 0.000, 0.000, 10:47:20.051, 1583740040051
56, -24619.60, -29966.89, -19049.77, -15468.23, -17496.21, -20582.29, -22670.95, -20834.64, 0.000, 0.000, 0.000, 10:47:20.051, 1583740040051
57, -24920.85, -30020.29, -19088.99, -15484.66, -17721.15, -20593.51, -22838.32, -20945.17, 0.000, 0.000, 0.000, 10:47:20.051, 1583740040051
58, -25482.51, -30078.00, -19214.81, -15596.53, -18361.38, -20638.30, -23105.98, -21232.08, 0.002, -0.020, 0.972, 10:47:20.051, 1583740040051
59, -25632.24, -30080.91, -19259.42, -15626.33, -18556.95, -20643.82, -23154.26, -21324.77, 0.000, 0.000, 0.000, 10:47:20.052, 1583740040052
60, -25096.18, -30005.81, -19155.04, -15542.89, -18019.24, -20609.27, -22881.57, -21078.32, 0.000, 0.000, 0.000, 10:47:20.052, 1583740040052
61, -24614.90, -29948.27, -19049.54, -15465.08, -17497.73, -20582.69, -22670.17, -20836.88, 0.000, 0.000, 0.000, 10:47:20.052, 1583740040052
62, -24916.12, -30000.24, -19086.13, -15481.98, -17718.00, -20595.41, -22837.18, -20944.86, 0.000, 0.000, 0.000, 10:47:20.052, 1583740040052
63, -25479.42, -30080.33, -19212.15, -15595.50, -18357.64, -20639.94, -23106.09, -21232.57, 0.000, 0.000, 0.000, 10:47:20.052, 1583740040052
64, -25636.36, -30094.19, -19264.86, -15629.81, -18560.24, -20647.91, -23161.44, -21332.08, 0.000, 0.000, 0.000, 10:47:20.052, 1583740040052
65, -25098.95, -30016.40, -19159.83, -15540.92, -18020.74, -20606.99, -22885.26, -21079.68, 0.000, 0.000, 0.000, 10:47:20.052, 1583740040052
66, -24612.40, -29963.27, -19055.62, -15467.79, -17498.49, -20582.89, -22671.11, -20836.92, 0.000, 0.000, 0.000, 10:47:20.053, 1583740040053
67, -24913.48, -30017.54, -19092.90, -15487.77, -17717.13, -20596.66, -22837.22, -20944.95, 0.000, 0.000, 0.000, 10:47:20.053, 1583740040053
68, -25476.23, -30081.40, -19212.42, -15590.94, -18354.74, -20634.04, -23102.63, -21226.87, 0.000, 0.000, 0.000, 10:47:20.053, 1583740040053
69, -25632.33, -30081.80, -19254.46, -15613.83, -18552.30, -20633.41, -23149.59, -21317.01, 0.004, -0.018, 0.972, 10:47:20.053, 1583740040053
70, -25106.51, -30008.31, -19153.50, -15531.71, -18022.26, -20598.67, -22881.05, -21071.30, 0.000, 0.000, 0.000, 10:47:20.053, 1583740040053
71, -24616.31, -29954.98, -19047.06, -15456.77, -17495.22, -20571.29, -22664.65, -20824.72, 0.000, 0.000, 0.000, 10:47:20.053, 1583740040053
72, -24908.36, -30008.31, -19083.14, -15474.60, -17708.68, -20585.06, -22828.19, -20929.53, 0.000, 0.000, 0.000, 10:47:20.053, 1583740040053
73, -25473.03, -30070.16, -19209.02, -15585.80, -18348.86, -20630.44, -23097.73, -21216.74, 0.000, 0.000, 0.000, 10:47:20.054, 1583740040054
74, -25633.85, -30076.19, -19257.55, -15617.99, -18557.22, -20636.74, -23152.92, -21315.38, 0.000, 0.000, 0.000, 10:47:20.054, 1583740040054
75, -25107.22, -30008.04, -19160.09, -15541.26, -18030.95, -20607.06, -22888.63, -21076.49, 0.000, 0.000, 0.000, 10:47:20.054, 1583740040054
76, -24617.00, -29953.95, -19052.78, -15462.91, -17500.90, -20579.50, -22671.02, -20828.90, 0.000, 0.000, 0.000, 10:47:20.054, 1583740040054
77, -24902.32, -29992.84, -19084.30, -15471.50, -17704.53, -20585.96, -22829.65, -20927.65, 0.000, 0.000, 0.000, 10:47:20.054, 1583740040054
78, -25463.15, -30050.33, -19205.54, -15579.25, -18340.32, -20627.24, -23096.55, -21212.07, 0.000, 0.000, 0.000, 10:47:20.054, 1583740040054
79, -25632.96, -30070.92, -19256.61, -15616.98, -18555.12, -20638.30, -23156.72, -21317.30, 0.000, -0.016, 0.974, 10:47:20.054, 1583740040054
80, -25109.41, -30006.99, -19158.33, -15541.70, -18033.01, -20608.87, -22892.03, -21078.41, 0.000, 0.000, 0.000, 10:47:20.055, 1583740040055
81, -24614.03, -29949.19, -19053.56, -15468.97, -17505.95, -20585.33, -22674.53, -20832.85, 0.000, 0.000, 0.000, 10:47:20.055, 1583740040055
82, -24899.31, -30004.62, -19087.07, -15480.35, -17708.53, -20594.81, -22834.05, -20932.77, 0.000, 0.000, 0.000, 10:47:20.055, 1583740040055
83, -25462.35, -30074.38, -19210.38, -15587.37, -18347.07, -20636.25, -23101.20, -21218.69, 0.000, 0.000, 0.000, 10:47:20.055, 1583740040055
84, -25629.72, -30076.46, -19256.77, -15618.77, -18556.89, -20639.51, -23154.89, -21318.20, 0.000, 0.000, 0.000, 10:47:20.055, 1583740040055
85, -25111.11, -30007.17, -19156.76, -15540.41, -18032.58, -20607.39, -22887.60, -21078.86, 0.000, 0.000, 0.000, 10:47:20.055, 1583740040055
86, -24613.94, -29956.72, -19051.51, -15465.89, -17499.94, -20582.47, -22668.09, -20832.99, 0.000, 0.000, 0.000, 10:47:20.055, 1583740040055
87, -24894.93, -30010.10, -19082.60, -15477.13, -17699.65, -20590.70, -22823.23, -20930.11, 0.000, 0.000, 0.000, 10:47:20.055, 1583740040055
88, -25457.94, -30071.68, -19202.16, -15584.11, -18335.22, -20628.51, -23087.76, -21211.42, 0.000, 0.000, 0.000, 10:47:20.055, 1583740040055
89, -25628.76, -30077.00, -19255.00, -15623.24, -18556.80, -20638.46, -23150.53, -21318.00, 0.000, -0.020, 0.970, 10:47:20.056, 1583740040056
90, -25109.84, -30009.16, -19158.64, -15551.72, -18039.78, -20611.32, -22889.77, -21083.17, 0.000, 0.000, 0.000, 10:47:20.056, 1583740040056
91, -24613.54, -29956.07, -19051.26, -15476.19, -17503.34, -20584.82, -22666.54, -20832.92, 0.000, 0.000, 0.000, 10:47:20.056, 1583740040056
92, -24888.22, -30000.49, -19079.63, -15474.18, -17695.00, -20586.29, -22819.28, -20923.96, 0.000, 0.000, 0.000, 10:47:20.056, 1583740040056
93, -25456.76, -30062.02, -19206.81, -15585.36, -18335.22, -20630.90, -23092.57, -21213.41, 0.000, 0.000, 0.000, 10:47:20.056, 1583740040056
94, -25632.53, -30064.53, -19260.16, -15629.32, -18560.93, -20641.97, -23157.99, -21324.17, 0.000, 0.000, 0.000, 10:47:20.056, 1583740040056
95, -25119.96, -30006.75, -19160.54, -15548.52, -18042.44, -20607.84, -22895.96, -21087.82, 0.000, 0.000, 0.000, 10:47:20.056, 1583740040056
96, -24617.58, -29962.42, -19047.91, -15458.22, -17499.36, -20573.91, -22669.94, -20830.91, 0.000, 0.000, 0.000, 10:47:20.057, 1583740040057
97, -24892.29, -30001.25, -19080.72, -15465.98, -17692.46, -20581.98, -22824.30, -20925.37, 0.000, 0.000, 0.000, 10:47:20.057, 1583740040057
98, -25456.71, -30065.38, -19207.66, -15580.55, -18333.39, -20629.97, -23094.87, -21215.76, 0.000, 0.000, 0.000, 10:47:20.057, 1583740040057
99, -25633.14, -30084.15, -19259.69, -15619.20, -18559.21, -20640.11, -23157.97, -21325.04, 0.002, -0.024, 0.972, 10:47:20.057, 1583740040057
100, -25123.67, -30017.10, -19165.39, -15544.36, -18046.55, -20611.59, -22901.08, -21092.80, 0.000, 0.000, 0.000, 10:47:20.057, 1583740040057
101, -24615.44, -29947.63, -19054.19, -15467.67, -17503.29, -20584.75, -22672.92, -20838.89, 0.000, 0.000, 0.000, 10:47:20.057, 1583740040057
102, -24886.01, -30002.16, -19084.86, -15475.68, -17694.42, -20592.51, -22825.64, -20931.51, 0.000, 0.000, 0.000, 10:47:20.057, 1583740040057
103, -25455.22, -30070.18, -19204.48, -15576.77, -18329.70, -20630.48, -23093.71, -21214.80, 0.000, 0.000, 0.000, 10:47:20.057, 1583740040057
104, -25636.51, -30082.18, -19255.67, -15616.31, -18559.17, -20637.83, -23156.03, -21322.65, 0.000, 0.000, 0.000, 10:47:20.057, 1583740040057
105, -25124.57, -30012.89, -19161.17, -15549.35, -18044.88, -20609.60, -22896.88, -21091.40, 0.000, 0.000, 0.000, 10:47:20.058, 1583740040058
106, -24609.96, -29945.53, -19045.03, -15460.52, -17493.62, -20573.08, -22665.65, -20828.79, 0.000, 0.000, 0.000, 10:47:20.058, 1583740040058
107, -24878.14, -29994.95, -19072.59, -15460.97, -17677.30, -20577.24, -22816.82, -20916.85, 0.000, 0.000, 0.000, 10:47:20.058, 1583740040058
108, -25446.61, -30066.38, -19194.83, -15567.81, -18314.66, -20618.61, -23085.71, -21201.50, 0.000, 0.000, 0.000, 10:47:20.058, 1583740040058
109, -25633.00, -30077.24, -19250.46, -15614.03, -18551.75, -20631.60, -23151.31, -21314.20, -0.002, -0.022, 0.970, 10:47:20.058, 1583740040058
110, -25125.19, -30002.72, -19159.40, -15545.84, -18041.97, -20605.22, -22893.97, -21085.90, 0.000, 0.000, 0.000, 10:47:20.058, 1583740040058
111, -24614.84, -29948.23, -19055.40, -15470.07, -17501.79, -20583.99, -22672.42, -20837.79, 0.000, 0.000, 0.000, 10:47:20.058, 1583740040058
112, -24873.38, -29999.66, -19081.17, -15466.22, -17681.21, -20584.91, -22819.48, -20919.82, 0.000, 0.000, 0.000, 10:47:20.059, 1583740040059
113, -25435.26, -30057.64, -19198.02, -15565.53, -18315.26, -20617.52, -23083.03, -21197.77, 0.000, 0.000, 0.000, 10:47:20.059, 1583740040059
114, -25626.41, -30067.28, -19256.14, -15613.94, -18553.85, -20632.67, -23155.00, -21315.76, 0.000, 0.000, 0.000, 10:47:20.059, 1583740040059
115, -25120.83, -29993.13, -19163.02, -15547.78, -18050.46, -20606.94, -22898.91, -21088.71, 0.000, 0.000, 0.000, 10:47:20.059, 1583740040059
116, -24609.05, -29933.84, -19053.99, -15474.83, -17506.49, -20583.41, -22669.63, -20837.66, 0.000, 0.000, 0.000, 10:47:20.059, 1583740040059
117, -24866.38, -29987.32, -19079.58, -15475.81, -17681.37, -20589.04, -22817.87, -20924.05, 0.000, 0.000, 0.000, 10:47:20.059, 1583740040059
118, -25431.93, -30057.93, -19203.34, -15578.20, -18319.06, -20630.30, -23089.84, -21209.84, 0.000, 0.000, 0.000, 10:47:20.059, 1583740040059
119, -25627.53, -30064.44, -19254.84, -15614.75, -18557.63, -20636.18, -23157.48, -21322.29, -0.002, -0.022, 0.968, 10:47:20.059, 1583740040059
120, -25127.32, -29994.12, -19160.21, -15544.88, -18053.88, -20608.73, -22902.20, -21093.92, 0.000, 0.000, 0.000, 10:47:20.059, 1583740040059
121, -24613.25, -29941.79, -19049.38, -15468.90, -17503.29, -20583.38, -22671.31, -20839.04, 0.000, 0.000, 0.000, 10:47:20.516, 1583740040516
122, -24873.42, -29995.62, -19075.56, -15470.92, -17672.65, -20588.53, -22814.85, -20922.37, 0.000, 0.000, 0.000, 10:47:20.517, 1583740040517
123, -25443.04, -30061.51, -19198.92, -15577.06, -18310.44, -20629.12, -23085.42, -21206.06, 0.000, 0.000, 0.000, 10:47:20.517, 1583740040517
124, -25637.43, -30074.09, -19249.25, -15613.86, -18550.12, -20633.88, -23153.48, -21318.29, 0.000, 0.000, 0.000, 10:47:20.517, 1583740040517
125, -25141.33, -30006.10, -19155.36, -15537.90, -18049.79, -20601.78, -22898.18, -21090.93, 0.000, 0.000, 0.000, 10:47:20.517, 1583740040517
126, -24622.46, -29952.61, -19047.40, -15463.99, -17501.88, -20576.48, -22667.22, -20835.40, 0.000, 0.000, 0.000, 10:47:20.518, 1583740040518
127, -24874.81, -29999.71, -19073.75, -15469.55, -17667.64, -20583.10, -22811.23, -20918.39, 0.000, 0.000, 0.000, 10:47:20.518, 1583740040518
128, -25438.45, -30064.21, -19197.94, -15575.86, -18309.01, -20625.16, -23083.23, -21204.12, 0.000, 0.000, 0.000, 10:47:20.518, 1583740040518
129, -25637.83, -30078.74, -19256.00, -15620.20, -18559.48, -20636.22, -23159.24, -21323.00, 0.000, -0.024, 0.970, 10:47:20.518, 1583740040518
130, -25145.09, -30008.18, -19164.63, -15548.25, -18062.20, -20606.83, -22907.97, -21098.24, 0.000, 0.000, 0.000, 10:47:20.523, 1583740040523
131, -24620.96, -29941.77, -19052.25, -15464.52, -17508.95, -20575.83, -22674.14, -20837.68, 0.000, 0.000, 0.000, 10:47:20.523, 1583740040523
132, -24874.05, -29991.50, -19074.91, -15466.89, -17671.56, -20579.29, -22815.45, -20914.93, 0.000, 0.000, 0.000, 10:47:20.523, 1583740040523
133, -25446.07, -30066.60, -19198.22, -15576.93, -18310.26, -20621.96, -23087.59, -21199.02, 0.000, 0.000, 0.000, 10:47:20.523, 1583740040523
134, -25639.73, -30076.21, -19249.90, -15607.40, -18557.36, -20623.53, -23157.90, -21311.36, 0.000, 0.000, 0.000, 10:47:20.523, 1583740040523
135, -25143.50, -30007.02, -19155.42, -15527.85, -18060.01, -20589.91, -22903.85, -21083.48, 0.000, 0.000, 0.000, 10:47:20.523, 1583740040523
136, -24623.62, -29951.47, -19049.70, -15459.34, -17507.58, -20569.51, -22673.97, -20829.25, 0.000, 0.000, 0.000, 10:47:20.524, 1583740040524
137, -24870.54, -29990.16, -19076.54, -15471.12, -17669.25, -20581.53, -22816.26, -20912.49, 0.000, 0.000, 0.000, 10:47:20.524, 1583740040524
138, -25438.43, -30050.29, -19200.95, -15579.70, -18308.04, -20626.01, -23086.49, -21199.67, 0.000, 0.000, 0.000, 10:47:20.524, 1583740040524
139, -25640.67, -30077.04, -19258.08, -15620.58, -18563.75, -20635.80, -23161.68, -21320.84, 0.008, -0.026, 0.966, 10:47:20.524, 1583740040524
140, -25152.60, -30015.98, -19166.84, -15540.47, -18071.25, -20603.08, -22911.61, -21099.44, 0.000, 0.000, 0.000, 10:47:20.524, 1583740040524
141, -24625.61, -29956.50, -19052.71, -15459.56, -17511.79, -20574.27, -22673.47, -20839.29, 0.000, 0.000, 0.000, 10:47:20.524, 1583740040524
142, -24866.36, -29994.39, -19071.20, -15461.73, -17665.23, -20578.33, -22806.09, -20914.50, 0.000, 0.000, 0.000, 10:47:20.524, 1583740040524
143, -25433.29, -30056.79, -19198.16, -15577.76, -18304.38, -20627.73, -23077.88, -21205.01, 0.000, 0.000, 0.000, 10:47:20.524, 1583740040524
144, -25639.24, -30069.98, -19259.45, -15630.44, -18565.63, -20643.60, -23158.17, -21332.06, 0.000, 0.000, 0.000, 10:47:20.524, 1583740040524
145, -25151.93, -30005.81, -19161.86, -15551.34, -18070.49, -20609.09, -22904.46, -21106.71, 0.000, 0.000, 0.000, 10:47:20.525, 1583740040525
146, -24630.37, -29951.74, -19051.71, -15472.86, -17512.17, -20584.10, -22671.20, -20847.79, 0.000, 0.000, 0.000, 10:47:20.525, 1583740040525
147, -24865.22, -29995.39, -19071.22, -15473.24, -17661.32, -20587.59, -22806.31, -20920.88, 0.000, 0.000, 0.000, 10:47:20.525, 1583740040525
148, -25426.65, -30057.78, -19191.03, -15575.19, -18292.71, -20626.84, -23073.75, -21201.39, 0.000, 0.000, 0.000, 10:47:20.525, 1583740040525
149, -25643.04, -30076.15, -19250.82, -15616.02, -18550.49, -20635.89, -23150.33, -21323.81, 0.004, -0.020, 0.966, 10:47:20.525, 1583740040525
150, -25160.66, -30006.81, -19162.08, -15545.17, -18063.27, -20605.65, -22901.78, -21103.78, 0.000, 0.000, 0.000, 10:47:20.525, 1583740040525
151, -24635.06, -29948.03, -19054.28, -15468.81, -17507.72, -20580.86, -22670.68, -20845.95, 0.000, 0.000, 0.000, 10:47:20.525, 1583740040525
152, -24867.23, -29989.45, -19073.90, -15465.73, -17657.99, -20583.38, -22807.18, -20917.37, 0.000, 0.000, 0.000, 10:47:20.526, 1583740040526
153, -25427.12, -30051.47, -19188.03, -15563.85, -18288.40, -20618.05, -23072.99, -21191.76, 0.000, 0.000, 0.000, 10:47:20.526, 1583740040526
154, -25644.98, -30080.31, -19249.01, -15613.90, -18557.07, -20630.30, -23155.71, -21317.84, 0.000, 0.000, 0.000, 10:47:20.526, 1583740040526
155, -25170.01, -30023.67, -19161.17, -15545.84, -18074.65, -20602.65, -22910.85, -21101.34, 0.000, 0.000, 0.000, 10:47:20.527, 1583740040527
156, -24643.15, -29966.89, -19050.59, -15467.99, -17516.75, -20575.83, -22675.64, -20841.15, 0.000, 0.000, 0.000, 10:47:20.527, 1583740040527
157, -24875.88, -30012.22, -19075.63, -15475.74, -17662.93, -20584.32, -22812.50, -20915.46, 0.000, 0.000, 0.000, 10:47:20.527, 1583740040527
158, -25436.87, -30068.73, -19195.54, -15581.00, -18295.17, -20624.42, -23081.35, -21196.47, 0.000, 0.000, 0.000, 10:47:20.527, 1583740040527
159, -25644.56, -30074.05, -19248.07, -15610.30, -18558.14, -20623.57, -23157.01, -21313.33, 0.000, 0.000, 0.000, 10:47:20.527, 1583740040527
160, -25164.24, -30009.92, -19160.85, -15538.40, -18077.73, -20593.20, -22912.19, -21096.20, 0.002, -0.020, 0.972, 10:47:20.527, 1583740040527
161, -24627.53, -29946.51, -19049.34, -15461.68, -17513.46, -20568.57, -22672.85, -20835.09, 0.000, 0.000, 0.000, 10:47:20.528, 1583740040528
162, -24856.66, -29989.49, -19070.20, -15464.86, -17658.30, -20576.48, -22807.50, -20908.54, 0.000, 0.000, 0.000, 10:47:20.528, 1583740040528
163, -25420.19, -30055.21, -19197.71, -15579.32, -18296.45, -20626.14, -23078.49, -21195.24, 0.000, 0.000, 0.000, 10:47:20.528, 1583740040528
164, -25632.94, -30065.06, -19256.88, -15626.42, -18566.16, -20638.01, -23157.50, -21321.71, 0.000, 0.000, 0.000, 10:47:20.528, 1583740040528
165, -25157.38, -29997.85, -19164.85, -15551.09, -18084.44, -20606.10, -22912.01, -21106.13, 0.000, 0.000, 0.000, 10:47:20.528, 1583740040528
166, -24625.16, -29934.95, -19051.73, -15473.15, -17516.66, -20578.85, -22671.29, -20843.94, 0.000, 0.000, 0.000, 10:47:20.529, 1583740040529
167, -24853.64, -29977.82, -19070.37, -15473.60, -17651.71, -20582.54, -22801.97, -20911.62, 0.000, 0.000, 0.000, 10:47:20.529, 1583740040529
168, -25416.59, -30044.07, -19191.10, -15574.32, -18283.95, -20623.78, -23070.26, -21190.50, 0.000, 0.000, 0.000, 10:47:20.529, 1583740040529
169, -25635.01, -30069.31, -19253.10, -15620.43, -18559.64, -20636.11, -23154.19, -21319.34, 0.000, 0.000, 0.000, 10:47:20.529, 1583740040529
170, -25164.17, -30008.09, -19162.24, -15543.87, -18082.00, -20603.26, -22910.58, -21103.22, 0.012, -0.024, 0.974, 10:47:20.529, 1583740040529
171, -24627.49, -29951.85, -19052.00, -15469.58, -17515.81, -20579.05, -22671.35, -20841.68, 0.000, 0.000, 0.000, 10:47:20.529, 1583740040529
172, -24850.54, -29995.46, -19069.35, -15470.00, -17644.62, -20584.21, -22799.02, -20909.65, 0.000, 0.000, 0.000, 10:47:20.530, 1583740040530
173, -25417.53, -30051.40, -19187.90, -15569.98, -18273.87, -20622.03, -23065.32, -21187.31, 0.000, 0.000, 0.000, 10:47:20.530, 1583740040530
174, -25639.84, -30060.95, -19252.47, -15624.61, -18555.61, -20638.50, -23153.54, -21322.40, 0.000, 0.000, 0.000, 10:47:20.530, 1583740040530
175, -25171.51, -30001.90, -19165.10, -15556.50, -18084.15, -20609.47, -22911.21, -21109.26, 0.000, 0.000, 0.000, 10:47:20.530, 1583740040530
176, -24634.33, -29951.83, -19049.99, -15471.12, -17511.85, -20577.51, -22664.62, -20841.77, 0.000, 0.000, 0.000, 10:47:20.530, 1583740040530
177, -24854.94, -29996.24, -19066.75, -15464.88, -17639.26, -20577.71, -22790.33, -20903.87, 0.000, 0.000, 0.000, 10:47:20.530, 1583740040530
178, -25418.56, -30056.75, -19189.62, -15573.49, -18270.65, -20620.51, -23061.21, -21185.34, 0.000, 0.000, 0.000, 10:47:20.530, 1583740040530
179, -25639.44, -30067.05, -19253.90, -15621.39, -18559.48, -20632.20, -23149.79, -21317.89, 0.000, 0.000, 0.000, 10:47:20.531, 1583740040531
180, -25176.06, -30003.17, -19165.05, -15542.93, -18090.14, -20599.26, -22911.97, -21105.86, 0.006, -0.028, 0.972, 10:47:20.531, 1583740040531
181, -24635.58, -29942.98, -19051.78, -15463.76, -17517.55, -20572.30, -22669.81, -20840.56, 0.000, 0.000, 0.000, 10:47:20.531, 1583740040531
182, -24854.94, -29991.46, -19071.67, -15466.36, -17646.68, -20579.09, -22798.60, -20905.05, 0.000, 0.000, 0.000, 10:47:20.531, 1583740040531
183, -25415.77, -30055.92, -19188.73, -15567.23, -18274.65, -20616.80, -23065.77, -21181.79, 0.000, 0.000, 0.000, 10:47:20.531, 1583740040531
184, -25639.55, -30072.17, -19245.12, -15604.13, -18555.54, -20619.69, -23149.79, -21306.73, 0.000, 0.000, 0.000, 10:47:20.531, 1583740040531
185, -25181.32, -30014.68, -19163.51, -15538.91, -18092.82, -20593.53, -22915.39, -21100.09, 0.000, 0.000, 0.000, 10:47:20.532, 1583740040532
186, -24635.40, -29953.44, -19053.50, -15467.36, -17523.48, -20571.96, -22674.23, -20838.46, 0.000, 0.000, 0.000, 10:47:20.532, 1583740040532
187, -24849.21, -29994.25, -19074.44, -15475.36, -17649.14, -20584.48, -22805.24, -20906.97, 0.000, 0.000, 0.000, 10:47:20.532, 1583740040532
188, -25406.31, -30045.66, -19190.31, -15570.49, -18275.21, -20620.47, -23072.36, -21181.59, 0.000, 0.000, 0.000, 10:47:20.532, 1583740040532
189, -25631.95, -30069.06, -19256.88, -15619.20, -18567.44, -20634.77, -23162.69, -21316.93, 0.000, 0.000, 0.000, 10:47:20.532, 1583740040532
190, -25177.09, -30005.63, -19164.97, -15541.88, -18098.81, -20599.68, -22919.99, -21105.50, 0.006, -0.026, 0.970, 10:47:20.532, 1583740040532
191, -24636.90, -29940.85, -19047.84, -15459.83, -17520.95, -20570.35, -22672.63, -20839.02, 0.000, 0.000, 0.000, 10:47:20.533, 1583740040533
192, -24842.31, -29994.01, -19063.73, -15458.98, -17637.20, -20575.43, -22794.29, -20899.21, 0.000, 0.000, 0.000, 10:47:20.533, 1583740040533
193, -25399.81, -30055.34, -19185.75, -15567.14, -18264.91, -20619.53, -23063.76, -21179.46, 0.000, 0.000, 0.000, 10:47:20.533, 1583740040533
194, -25634.16, -30064.82, -19253.90, -15624.23, -18560.69, -20636.92, -23157.59, -21318.58, 0.000, 0.000, 0.000, 10:47:20.534, 1583740040534
195, -25179.22, -30008.94, -19171.74, -15558.40, -18102.03, -20609.94, -22922.25, -21113.32, 0.000, 0.000, 0.000, 10:47:20.534, 1583740040534
196, -24630.55, -29951.94, -19055.80, -15474.69, -17523.10, -20580.57, -22672.31, -20844.14, 0.000, 0.000, 0.000, 10:47:20.534, 1583740040534
197, -24836.45, -29991.59, -19069.68, -15466.92, -17636.06, -20581.57, -22792.43, -20900.47, 0.000, 0.000, 0.000, 10:47:20.534, 1583740040534
198, -25397.46, -30052.34, -19187.68, -15567.45, -18263.36, -20622.43, -23061.79, -21178.97, 0.000, 0.000, 0.000, 10:47:20.535, 1583740040535
199, -25631.01, -30066.18, -19253.48, -15619.53, -18560.37, -20637.48, -23155.36, -21319.47, 0.000, 0.000, 0.000, 10:47:20.535, 1583740040535
200, -25177.50, -30004.78, -19165.08, -15549.64, -18101.29, -20607.01, -22917.69, -21113.72, 0.004, -0.024, 0.966, 10:47:20.535, 1583740040535
201, -24632.31, -29952.61, -19055.09, -15474.16, -17526.43, -20585.64, -22673.25, -20850.69, 0.000, 0.000, 0.000, 10:47:20.535, 1583740040535
202, -24838.49, -29998.23, -19072.50, -15468.21, -17636.15, -20588.21, -22795.38, -20907.20, 0.000, 0.000, 0.000, 10:47:20.535, 1583740040535
203, -25399.05, -30063.97, -19189.89, -15569.02, -18262.74, -20625.43, -23063.49, -21184.18, 0.000, 0.000, 0.000, 10:47:20.536, 1583740040536
204, -25630.90, -30081.94, -19252.29, -15621.14, -18561.25, -20638.15, -23156.09, -21321.57, 0.000, 0.000, 0.000, 10:47:20.536, 1583740040536
205, -25186.91, -30029.99, -19166.93, -15551.54, -18107.53, -20609.36, -22924.48, -21119.87, 0.000, 0.000, 0.000, 10:47:20.536, 1583740040536
206, -24633.90, -29966.58, -19047.87, -15462.49, -17519.79, -20576.41, -22671.78, -20847.40, 0.000, 0.000, 0.000, 10:47:20.536, 1583740040536
207, -24828.72, -29998.54, -19059.47, -15454.76, -17622.21, -20576.03, -22786.51, -20900.60, 0.000, 0.000, 0.000, 10:47:20.536, 1583740040536
208, -25393.71, -30060.41, -19183.63, -15567.92, -18255.72, -20624.22, -23059.85, -21184.04, 0.000, 0.000, 0.000, 10:47:20.537, 1583740040537
209, -25630.57, -30075.48, -19252.03, -15626.44, -18563.99, -20642.53, -23157.79, -21326.94, 0.000, 0.000, 0.000, 10:47:20.537, 1583740040537
210, -25185.77, -30014.50, -19168.77, -15557.35, -18114.46, -20612.26, -22928.17, -21123.47, 0.006, -0.022, 0.968, 10:47:20.537, 1583740040537
211, -24632.27, -29954.60, -19050.35, -15468.73, -17529.45, -20578.22, -22677.79, -20848.97, 0.000, 0.000, 0.000, 10:47:20.537, 1583740040537
212, -24826.13, -29997.09, -19065.50, -15465.28, -17631.48, -20582.09, -22795.47, -20903.60, 0.000, 0.000, 0.000, 10:47:20.537, 1583740040537
213, -25388.63, -30061.40, -19188.17, -15572.50, -18260.08, -20626.93, -23067.71, -21182.90, 0.000, 0.000, 0.000, 10:47:20.537, 1583740040537
214, -25634.23, -30072.86, -19259.65, -15629.70, -18573.00, -20644.21, -23169.91, -21326.16, 0.000, 0.000, 0.000, 10:47:20.537, 1583740040537
215, -25191.78, -30008.15, -19175.99, -15557.24, -18123.78, -20611.79, -22940.31, -21121.79, 0.000, 0.000, 0.000, 10:47:20.538, 1583740040538
216, -24640.70, -29950.73, -19061.68, -15475.25, -17541.51, -20586.07, -22692.29, -20853.78, 0.000, 0.000, 0.000, 10:47:20.538, 1583740040538
217, -24825.32, -30002.95, -19070.66, -15469.66, -17636.15, -20585.93, -22802.78, -20903.17, 0.000, 0.000, 0.000, 10:47:20.538, 1583740040538
218, -25390.84, -30070.52, -19191.59, -15573.11, -18262.78, -20627.02, -23071.07, -21179.62, 0.000, 0.000, 0.000, 10:47:20.538, 1583740040538
219, -25636.38, -30085.27, -19259.65, -15627.24, -18573.90, -20641.32, -23168.52, -21322.22, 0.000, 0.000, 0.000, 10:47:20.539, 1583740040539
220, -25196.81, -30020.00, -19179.21, -15560.37, -18128.52, -20612.55, -22941.38, -21123.89, 0.000, -0.024, 0.972, 10:47:20.539, 1583740040539
221, -24637.63, -29951.09, -19060.88, -15474.47, -17539.95, -20581.11, -22686.10, -20849.37, 0.000, 0.000, 0.000, 10:47:20.539, 1583740040539
222, -24824.21, -29988.22, -19067.13, -15466.33, -17629.27, -20580.50, -22794.06, -20896.29, 0.000, 0.000, 0.000, 10:47:20.539, 1583740040539
223, -25382.73, -30046.60, -19184.90, -15569.08, -18251.52, -20620.11, -23058.89, -21171.48, 0.000, 0.000, 0.000, 10:47:20.539, 1583740040539
224, -25629.20, -30069.22, -19254.82, -15622.19, -18564.58, -20636.25, -23157.79, -21317.55, 0.000, 0.000, 0.000, 10:47:20.540, 1583740040540
225, -25196.00, -30017.70, -19171.36, -15554.71, -18121.16, -20610.03, -22929.36, -21123.29, 0.000, 0.000, 0.000, 10:47:20.540, 1583740040540
226, -24642.10, -29955.67, -19054.28, -15467.94, -17533.91, -20580.75, -22676.13, -20852.41, 0.000, 0.000, 0.000, 10:47:20.540, 1583740040540
227, -24822.10, -29988.64, -19059.69, -15450.84, -17617.24, -20575.72, -22784.07, -20895.55, 0.000, 0.000, 0.000, 10:47:20.540, 1583740040540
228, -25374.24, -30046.04, -19173.24, -15553.37, -18234.84, -20613.36, -23048.22, -21166.97, 0.000, 0.000, 0.000, 10:47:20.540, 1583740040540
229, -25624.11, -30072.28, -19240.36, -15613.30, -18549.67, -20630.97, -23146.53, -21313.73, 0.000, 0.000, 0.000, 10:47:20.541, 1583740040541
230, -25201.01, -30027.51, -19163.58, -15553.26, -18115.02, -20608.40, -22926.03, -21122.78, -0.002, -0.022, 0.970, 10:47:20.541, 1583740040541
231, -24651.71, -29970.07, -19048.49, -15469.66, -17529.91, -20579.90, -22675.22, -20851.85, 0.000, 0.000, 0.000, 10:47:20.541, 1583740040541
232, -24829.79, -30004.02, -19055.26, -15454.11, -17612.32, -20575.27, -22782.73, -20892.98, 0.000, 0.000, 0.000, 10:47:20.541, 1583740040541
233, -25388.05, -30068.59, -19174.20, -15559.63, -18235.60, -20619.42, -23050.75, -21171.04, 0.000, 0.000, 0.000, 10:47:20.541, 1583740040541
234, -25634.07, -30083.86, -19241.99, -15617.19, -18556.78, -20634.57, -23149.16, -21316.30, 0.000, 0.000, 0.000, 10:47:20.541, 1583740040541
235, -25205.32, -30018.28, -19164.61, -15555.54, -18121.77, -20607.35, -22925.69, -21122.42, 0.000, 0.000, 0.000, 10:47:20.542, 1583740040542
236, -24650.60, -29950.13, -19054.17, -15479.45, -17535.52, -20583.72, -22677.05, -20854.38, 0.000, 0.000, 0.000, 10:47:20.542, 1583740040542
237, -24826.13, -29992.42, -19061.81, -15464.77, -17618.00, -20581.89, -22784.14, -20896.18, 0.000, 0.000, 0.000, 10:47:20.542, 1583740040542
238, -25376.18, -30061.58, -19178.42, -15562.89, -18237.66, -20621.21, -23049.43, -21168.11, 0.000, 0.000, 0.000, 10:47:20.542, 1583740040542
239, -25625.87, -30072.19, -19249.05, -15614.48, -18560.04, -20634.32, -23151.20, -21312.66, 0.000, 0.000, 0.000, 10:47:20.543, 1583740040543
240, -25200.18, -30011.51, -19167.27, -15541.84, -18125.25, -20600.80, -22925.71, -21116.77, 0.000, -0.022, 0.972, 10:47:20.543, 1583740040543
241, -24644.85, -29954.62, -19052.45, -15462.91, -17537.83, -20574.56, -22674.39, -20846.33, 0.000, 0.000, 0.000, 10:47:20.997, 1583740040997
242, -24820.96, -29996.26, -19061.32, -15455.85, -17618.52, -20577.93, -22785.57, -20892.11, 0.000, 0.000, 0.000, 10:47:20.997, 1583740040997
243, -25371.67, -30052.84, -19176.95, -15556.84, -18237.59, -20618.59, -23049.92, -21162.88, 0.000, 0.000, 0.000, 10:47:20.998, 1583740040998
244, -25627.41, -30067.63, -19249.84, -15619.22, -18562.81, -20636.85, -23153.84, -21310.58, 0.000, 0.000, 0.000, 10:47:20.998, 1583740040998
245, -25209.71, -30009.59, -19172.48, -15551.63, -18133.81, -20609.11, -22937.56, -21121.04, 0.000, 0.000, 0.000, 10:47:20.998, 1583740040998
246, -24648.47, -29945.59, -19057.79, -15469.22, -17545.81, -20581.49, -22686.04, -20849.55, 0.000, 0.000, 0.000, 10:47:20.998, 1583740040998
247, -24820.54, -29989.36, -19061.97, -15450.64, -17616.21, -20576.32, -22789.23, -20887.86, 0.000, 0.000, 0.000, 10:47:20.998, 1583740040998
248, -25362.01, -30046.58, -19171.54, -15548.48, -18226.97, -20611.04, -23048.20, -21152.46, 0.000, 0.000, 0.000, 10:47:20.998, 1583740040998
249, -25611.39, -30060.26, -19240.40, -15611.29, -18552.91, -20628.13, -23147.96, -21301.48, 0.000, 0.000, 0.000, 10:47:20.998, 1583740040998
250, -25205.35, -30006.39, -19164.81, -15548.90, -18130.75, -20603.17, -22931.73, -21117.95, 0.000, 0.000, 0.000, 10:47:20.998, 1583740040998
251, -24649.88, -29951.87, -19044.04, -15459.94, -17536.15, -20571.90, -22673.61, -20843.76, 0.004, -0.018, 0.972, 10:47:20.999, 1583740040999
252, -24821.92, -29998.03, -19051.58, -15447.07, -17606.27, -20571.85, -22777.52, -20886.50, 0.000, 0.000, 0.000, 10:47:20.999, 1583740040999
253, -25363.69, -30052.19, -19166.06, -15548.90, -18219.33, -20611.30, -23036.31, -21153.11, 0.000, 0.000, 0.000, 10:47:20.999, 1583740040999
254, -25615.19, -30063.56, -19237.95, -15618.19, -18546.36, -20631.64, -23137.77, -21303.47, 0.000, 0.000, 0.000, 10:47:21.002, 1583740041002
255, -25206.40, -30012.85, -19161.90, -15554.82, -18126.95, -20605.20, -22923.35, -21120.52, 0.000, 0.000, 0.000, 10:47:21.003, 1583740041003
0, -24657.08, -29966.47, -19050.37, -15468.23, -17539.08, -20577.33, -22671.80, -20852.54, 0.000, 0.000, 0.000, 10:47:21.003, 1583740041003
1, -24832.65, -30003.42, -19058.30, -15452.63, -17608.64, -20575.79, -22777.34, -20893.72, 0.000, 0.000, 0.000, 10:47:21.003, 1583740041003
2, -25371.42, -30060.86, -19176.10, -15561.51, -18222.71, -20620.80, -23039.55, -21164.17, 0.000, 0.000, 0.000, 10:47:21.003, 1583740041003
3, -25618.36, -30072.64, -19244.72, -15623.35, -18551.03, -20638.37, -23140.47, -21312.43, 0.000, 0.000, 0.000, 10:47:21.004, 1583740041004
4, -25211.38, -30010.61, -19168.23, -15553.17, -18135.04, -20607.39, -22927.44, -21127.96, 0.000, 0.000, 0.000, 10:47:21.004, 1583740041004
5, -24655.52, -29947.29, -19054.17, -15470.29, -17546.34, -20580.46, -22676.92, -20857.91, 0.006, -0.020, 0.970, 10:47:21.004, 1583740041004
6, -24828.74, -29989.24, -19063.71, -15456.66, -17616.13, -20581.91, -22786.64, -20898.57, 0.000, 0.000, 0.000, 10:47:21.004, 1583740041004
7, -25361.72, -30049.82, -19179.63, -15562.22, -18226.75, -20624.40, -23046.53, -21163.10, 0.000, 0.000, 0.000, 10:47:21.004, 1583740041004
8, -25616.08, -30067.43, -19254.71, -15630.93, -18564.58, -20646.08, -23152.74, -21316.32, 0.000, 0.000, 0.000, 10:47:21.004, 1583740041004
9, -25220.23, -30015.64, -19178.51, -15563.38, -18155.29, -20615.73, -22944.09, -21135.76, 0.000, 0.000, 0.000, 10:47:21.004, 1583740041004
10, -24663.16, -29958.80, -19057.92, -15473.64, -17560.04, -20582.58, -22690.24, -20860.66, 0.000, 0.000, 0.000, 10:47:21.004, 1583740041004
11, -24826.64, -29996.91, -19061.72, -15451.22, -17617.94, -20577.46, -22791.45, -20895.04, 0.000, 0.000, 0.000, 10:47:21.004, 1583740041004
12, -25357.85, -30051.88, -19176.14, -15555.61, -18223.64, -20619.44, -23046.86, -21156.13, 0.000, 0.000, 0.000, 10:47:21.005, 1583740041005
13, -25602.11, -30062.60, -19245.77, -15615.20, -18555.21, -20632.69, -23145.34, -21301.64, 0.000, 0.000, 0.000, 10:47:21.005, 1583740041005
14, -25208.30, -30007.57, -19171.13, -15549.91, -18143.69, -20602.63, -22936.82, -21123.00, 0.000, 0.000, 0.000, 10:47:21.005, 1583740041005
15, -24660.99, -29945.23, -19056.34, -15471.43, -17554.54, -20576.99, -22685.23, -20856.55, 0.010, -0.018, 0.968, 10:47:21.005, 1583740041005
16, -24831.63, -29985.18, -19058.24, -15448.34, -17610.16, -20571.56, -22784.85, -20890.68, 0.000, 0.000, 0.000, 10:47:21.005, 1583740041005
17, -25354.30, -30047.65, -19169.12, -15546.22, -18207.57, -20610.52, -23034.61, -21147.72, 0.000, 0.000, 0.000, 10:47:21.005, 1583740041005
18, -25600.21, -30062.63, -19242.37, -15617.95, -18543.36, -20631.64, -23137.01, -21298.22, 0.000, 0.000, 0.000, 10:47:21.005, 1583740041005
19, -25213.97, -30005.99, -19170.06, -15555.41, -18141.14, -20603.55, -22933.85, -21125.01, 0.000, 0.000, 0.000, 10:47:21.005, 1583740041005
20, -24665.87, -29944.23, -19056.02, -15467.99, -17547.50, -20575.23, -22684.43, -20858.09, 0.000, 0.000, 0.000, 10:47:21.006, 1583740041006
21, -24833.37, -29996.76, -19058.57, -15448.90, -17603.81, -20572.03, -22784.29, -20893.78, 0.000, 0.000, 0.000, 10:47:21.006, 1583740041006
22, -25349.98, -30054.74, -19168.63, -15553.89, -18203.95, -20614.63, -23032.76, -21149.67, 0.000, 0.000, 0.000, 10:47:21.006, 1583740041006
23, -25595.67, -30065.60, -19238.95, -15623.11, -18539.86, -20636.36, -23132.96, -21299.69, 0.000, 0.000, 0.000, 10:47:21.006, 1583740041006
24, -25223.63, -30025.30, -19169.84, -15556.28, -18142.24, -20609.27, -22934.74, -21131.92, 0.000, 0.000, 0.000, 10:47:21.006, 1583740041006
25, -24672.46, -29965.48, -19053.16, -15468.77, -17548.33, -20577.64, -22681.23, -20862.11, 0.010, -0.016, 0.972, 10:47:21.006, 1583740041006
26, -24834.55, -30001.23, -19056.61, -15452.45, -17602.85, -20574.51, -22782.55, -20897.70, 0.000, 0.000, 0.000, 10:47:21.006, 1583740041006
27, -25350.61, -30054.62, -19171.69, -15559.63, -18203.91, -20619.08, -23033.63, -21153.96, 0.000, 0.000, 0.000, 10:47:21.006, 1583740041006
28, -25596.12, -30066.78, -19242.13, -15625.23, -18542.09, -20636.65, -23131.46, -21299.07, 0.000, 0.000, 0.000, 10:47:21.007, 1583740041007
29, -25220.41, -30008.85, -19167.49, -15553.55, -18144.77, -20604.84, -22930.23, -21127.07, 0.000, 0.000, 0.000, 10:47:21.008, 1583740041008
30, -24671.16, -29949.95, -19051.26, -15461.08, -17552.60, -20573.82, -22680.38, -20857.13, 0.000, 0.000, 0.000, 10:47:21.008, 1583740041008
31, -24831.16, -29991.28, -19055.17, -15441.81, -17604.79, -20570.94, -22781.50, -20890.92, 0.000, 0.000, 0.000, 10:47:21.008, 1583740041008
32, -25339.41, -30046.04, -19166.49, -15547.63, -18199.95, -20612.91, -23028.24, -21144.68, 0.000, 0.000, 0.000, 10:47:21.009, 1583740041009
33, -25582.73, -30057.08, -19242.95, -15625.66, -18545.91, -20637.72, -23134.66, -21300.41, 0.000, 0.000, 0.000, 10:47:21.009, 1583740041009
34, -25213.19, -30001.03, -19171.22, -15557.57, -18154.09, -20607.77, -22938.61, -21132.21, 0.000, 0.000, 0.000, 10:47:21.009, 1583740041009
35, -24666.96, -29949.37, -19054.32, -15463.76, -17559.96, -20574.62, -22685.90, -20862.04, 0.010, -0.016, 0.972, 10:47:21.009, 1583740041009
36, -24832.12, -29994.10, -19058.17, -15451.29, -17609.87, -20574.42, -22786.51, -20898.19, 0.000, 0.000, 0.000, 10:47:21.009, 1583740041009
37, -25341.33, -30049.06, -19167.54, -15558.56, -18202.41, -20617.14, -23031.77, -21150.43, 0.000, 0.000, 0.000, 10:47:21.009, 1583740041009
38, -25585.93, -30064.35, -19235.11, -15614.97, -18538.76, -20627.78, -23128.76, -21292.96, 0.000, 0.000, 0.000, 10:47:21.009, 1583740041009
39, -25221.64, -30012.47, -19160.79, -15542.62, -18145.39, -20593.53, -22930.56, -21122.87, 0.000, 0.000, 0.000, 10:47:21.009, 1583740041009
40, -24672.12, -29954.64, -19042.95, -15452.34, -17550.07, -20561.03, -22678.17, -20851.25, 0.000, 0.000, 0.000, 10:47:21.010, 1583740041010
41, -24836.27, -29994.72, -19051.42, -15436.81, -17601.26, -20562.46, -22782.10, -20886.70, 0.000, 0.000, 0.000, 10:47:21.010, 1583740041010
42, -25340.93, -30041.30, -19165.64, -15549.04, -18195.44, -20610.01, -23028.04, -21141.26, 0.000, 0.000, 0.000, 10:47:21.010, 1583740041010
43, -25587.31, -30051.72, -19242.55, -15622.24, -18542.43, -20633.25, -23132.80, -21293.97, 0.000, 0.000, 0.000, 10:47:21.010, 1583740041010
44, -25225.96, -30004.11, -19174.31, -15559.14, -18158.49, -20604.64, -22939.88, -21130.76, 0.000, 0.000, 0.000, 10:47:21.010, 1583740041010
45, -24672.75, -29944.23, -19053.83, -15463.85, -17559.22, -20571.34, -22684.85, -20860.19, 0.010, -0.018, 0.968, 10:47:21.010, 1583740041010
46, -24826.01, -29981.64, -19051.55, -15438.30, -17598.06, -20565.21, -22780.92, -20888.15, 0.000, 0.000, 0.000, 10:47:21.010, 1583740041010
47, -25329.69, -30033.95, -19161.41, -15544.23, -18188.96, -20606.65, -23023.30, -21136.37, 0.000, 0.000, 0.000, 10:47:21.010, 1583740041010
48, -25579.54, -30051.27, -19236.29, -15616.05, -18534.83, -20626.95, -23125.31, -21288.49, 0.000, 0.000, 0.000, 10:47:21.010, 1583740041010
49, -25229.87, -30014.39, -19169.28, -15548.14, -18155.79, -20598.54, -22936.38, -21127.36, 0.000, 0.000, 0.000, 10:47:21.011, 1583740041011
50, -24679.05, -29952.95, -19051.46, -15460.28, -17559.78, -20566.64, -22683.71, -20857.13, 0.000, 0.000, 0.000, 10:47:21.011, 1583740041011
51, -24836.16, -29988.91, -19054.46, -15440.41, -17599.63, -20564.56, -22782.60, -20887.62, 0.000, 0.000, 0.000, 10:47:21.011, 1583740041011
52, -25334.81, -30034.51, -19161.08, -15541.77, -18184.82, -20604.42, -23021.20, -21133.73, 0.000, 0.000, 0.000, 10:47:21.011, 1583740041011
53, -25577.35, -30048.05, -19238.32, -15621.10, -18538.22, -20630.44, -23126.25, -21289.50, 0.000, 0.000, 0.000, 10:47:21.011, 1583740041011
54, -25229.22, -30008.04, -19172.30, -15557.62, -18165.44, -20604.13, -22940.80, -21133.55, 0.000, 0.000, 0.000, 10:47:21.011, 1583740041011
55, -24677.15, -29944.85, -19053.39, -15461.28, -17564.16, -20569.39, -22685.95, -20862.36, 0.008, -0.018, 0.964, 10:47:21.011, 1583740041011
56, -24824.00, -29982.34, -19056.69, -15438.53, -17599.45, -20566.80, -22782.30, -20891.48, 0.000, 0.000, 0.000, 10:47:21.012, 1583740041012
57, -25322.45, -30034.55, -19163.13, -15545.44, -18185.36, -20609.92, -23022.83, -21138.92, 0.000, 0.000, 0.000, 10:47:21.012, 1583740041012
58, -25573.75, -30048.28, -19239.40, -15626.04, -18540.59, -20636.11, -23127.73, -21294.93, 0.000, 0.000, 0.000, 10:47:21.012, 1583740041012
59, -25228.44, -29997.56, -19174.24, -15565.29, -18169.42, -20610.79, -22942.08, -21139.25, 0.000, 0.000, 0.000, 10:47:21.012, 1583740041012
60, -24677.06, -29937.63, -19055.71, -15470.56, -17571.60, -20576.30, -22686.24, -20868.19, 0.000, 0.000, 0.000, 10:47:21.012, 1583740041012
61, -24822.84, -29971.21, -19053.12, -15435.53, -17598.22, -20564.83, -22777.12, -20888.20, 0.000, 0.000, 0.000, 10:47:21.012, 1583740041012
62, -25327.56, -30034.31, -19159.49, -15534.48, -18180.69, -20604.33, -23017.69, -21132.66, 0.000, 0.000, 0.000, 10:47:21.012, 1583740041012
63, -25579.87, -30052.66, -19236.49, -15613.12, -18538.40, -20629.74, -23124.42, -21288.27, 0.000, 0.000, 0.000, 10:47:21.012, 1583740041012
64, -25236.33, -30012.87, -19173.37, -15555.09, -18172.57, -20604.98, -22943.77, -21134.40, 0.000, 0.000, 0.000, 10:47:21.012, 1583740041012
65, -24685.09, -29956.79, -19059.04, -15468.43, -17576.79, -20575.03, -22691.36, -20866.27, 0.004, -0.018, 0.966, 10:47:21.012, 1583740041012
66, -24827.18, -29987.68, -19057.23, -15439.04, -17600.28, -20567.78, -22783.54, -20889.80, 0.000, 0.000, 0.000, 10:47:21.013, 1583740041013
67, -25323.63, -30029.46, -19160.92, -15539.89, -18181.67, -20605.31, -23020.13, -21132.28, 0.000, 0.000, 0.000, 10:47:21.013, 1583740041013
68, -25571.69, -30042.62, -19236.00, -15616.69, -18536.86, -20626.10, -23121.16, -21284.49, 0.000, 0.000, 0.000, 10:47:21.013, 1583740041013
69, -25236.06, -30006.77, -19174.38, -15555.88, -18172.88, -20600.48, -22941.74, -21132.99, 0.000, 0.000, 0.000, 10:47:21.013, 1583740041013
70, -24684.42, -29951.45, -19056.92, -15465.66, -17573.05, -20567.94, -22686.80, -20862.13, 0.000, 0.000, 0.000, 10:47:21.013, 1583740041013
71, -24824.67, -29984.35, -19054.44, -15437.21, -17594.87, -20561.26, -22777.63, -20883.50, 0.000, 0.000, 0.000, 10:47:21.013, 1583740041013
72, -25328.82, -30033.19, -19161.70, -15543.02, -18178.67, -20605.13, -23016.46, -21130.67, 0.000, 0.000, 0.000, 10:47:21.013, 1583740041013
73, -25580.59, -30046.60, -19232.60, -15612.18, -18536.14, -20622.43, -23116.35, -21281.63, 0.000, 0.000, 0.000, 10:47:21.014, 1583740041014
74, -25243.10, -30013.94, -19168.63, -15549.35, -18170.49, -20594.92, -22936.11, -21128.12, 0.000, 0.000, 0.000, 10:47:21.014, 1583740041014
75, -24690.12, -29959.18, -19054.71, -15464.08, -17571.13, -20568.61, -22684.43, -20860.86, 0.006, -0.020, 0.968, 10:47:21.014, 1583740041014
76, -24821.50, -29987.08, -19048.87, -15435.87, -17588.41, -20560.18, -22769.88, -20877.94, 0.000, 0.000, 0.000, 10:47:21.014, 1583740041014
77, -25318.94, -30032.07, -19156.58, -15545.86, -18172.68, -20605.33, -23009.47, -21125.66, 0.000, 0.000, 0.000, 10:47:21.014, 1583740041014
78, -25574.46, -30044.92, -19237.97, -15632.56, -18538.22, -20634.62, -23118.01, -21287.31, 0.000, 0.000, 0.000, 10:47:21.014, 1583740041014
79, -25244.10, -30002.92, -19172.74, -15560.21, -18176.26, -20602.70, -22938.83, -21136.41, 0.000, 0.000, 0.000, 10:47:21.014, 1583740041014
80, -24685.06, -29944.94, -19050.10, -15461.06, -17568.98, -20566.17, -22680.40, -20861.75, 0.000, 0.000, 0.000, 10:47:21.014, 1583740041014
81, -24816.83, -29986.67, -19046.81, -15435.00, -17583.67, -20563.29, -22769.81, -20884.69, 0.000, 0.000, 0.000, 10:47:21.015, 1583740041015
82, -25312.75, -30033.84, -19152.23, -15533.28, -18162.71, -20603.55, -23008.86, -21128.23, 0.000, 0.000, 0.000, 10:47:21.015, 1583740041015
83, -25571.04, -30046.11, -19229.85, -15615.44, -18533.04, -20627.75, -23117.98, -21287.18, 0.000, 0.000, 0.000, 10:47:21.015, 1583740041015
84, -25244.78, -29998.41, -19170.96, -15562.22, -18178.20, -20605.16, -22942.70, -21142.71, 0.000, 0.000, 0.000, 10:47:21.015, 1583740041015
85, -24693.29, -29937.52, -19053.25, -15472.08, -17573.52, -20574.91, -22686.82, -20871.95, 0.000, 0.000, 0.000, 10:47:21.015, 1583740041015
86, -24827.71, -29987.32, -19049.56, -15441.30, -17585.73, -20567.40, -22775.00, -20889.34, 0.006, -0.020, 0.970, 10:47:21.015, 1583740041015
87, -25324.62, -30037.90, -19157.61, -15540.07, -18166.87, -20607.30, -23015.57, -21132.12, 0.000, 0.000, 0.000, 10:47:21.015, 1583740041015
88, -25579.65, -30056.63, -19238.48, -15627.11, -18539.12, -20636.05, -23126.28, -21292.65, 0.000, 0.000, 0.000, 10:47:21.015, 1583740041015
89, -25249.60, -30013.90, -19174.91, -15559.27, -18185.47, -20605.02, -22950.64, -21142.60, 0.000, 0.000, 0.000, 10:47:21.015, 1583740041015
90, -24689.15, -29948.12, -19052.49, -15454.55, -17574.04, -20564.92, -22690.64, -20864.62, 0.000, 0.000, 0.000, 10:47:21.016, 1583740041016
91, -24818.15, -29989.71, -19049.65, -15428.11, -17582.06, -20559.96, -22776.65, -20880.87, 0.000, 0.000, 0.000, 10:47:21.016, 1583740041016
92, -25314.45, -30038.42, -19156.54, -15536.29, -18164.64, -20603.77, -23013.49, -21123.31, 0.000, 0.000, 0.000, 10:47:21.016, 1583740041016
93, -25572.79, -30050.56, -19232.89, -15617.14, -18539.74, -20626.46, -23121.13, -21280.69, 0.000, 0.000, 0.000, 10:47:21.016, 1583740041016
94, -25254.68, -30014.14, -19173.13, -15556.59, -18192.64, -20599.63, -22952.49, -21135.00, 0.000, 0.000, 0.000, 10:47:21.016, 1583740041016
95, -24696.08, -29950.00, -19056.02, -15465.86, -17584.94, -20569.77, -22698.78, -20863.16, 0.000, 0.000, 0.000, 10:47:21.016, 1583740041016
96, -24820.43, -29984.75, -19054.57, -15440.99, -17588.07, -20567.43, -22784.65, -20882.65, 0.000, -0.024, 0.970, 10:47:21.016, 1583740041016
97, -25320.41, -30046.69, -19161.52, -15543.78, -18167.68, -20612.44, -23021.00, -21130.04, 0.000, 0.000, 0.000, 10:47:21.016, 1583740041016
98, -25579.78, -30057.75, -19235.62, -15621.72, -18537.96, -20637.01, -23126.12, -21289.39, 0.000, 0.000, 0.000, 10:47:21.017, 1583740041017
99, -25262.07, -30010.81, -19174.46, -15560.48, -18192.24, -20609.58, -22954.66, -21147.01, 0.000, 0.000, 0.000, 10:47:21.017, 1583740041017
100, -24698.23, -29949.24, -19057.66, -15473.55, -17585.53, -20579.16, -22696.65, -20875.05, 0.000, 0.000, 0.000, 10:47:21.017, 1583740041017
101, -24816.31, -29985.31, -19055.20, -15450.60, -17585.82, -20575.45, -22778.86, -20889.76, 0.000, 0.000, 0.000, 10:47:21.017, 1583740041017
102, -25310.78, -30032.61, -19157.41, -15546.40, -18159.81, -20612.49, -23012.21, -21127.94, 0.000, 0.000, 0.000, 10:47:21.017, 1583740041017
103, -25570.69, -30053.33, -19230.46, -15619.51, -18531.23, -20630.30, -23114.81, -21281.95, 0.000, 0.000, 0.000, 10:47:21.017, 1583740041017
104, -25254.77, -30018.59, -19169.50, -15559.47, -18188.24, -20602.21, -22942.70, -21139.52, 0.000, 0.000, 0.000, 10:47:21.017, 1583740041017
105, -24693.40, -29961.91, -19050.84, -15465.53, -17578.80, -20568.48, -22683.98, -20866.83, 0.000, 0.000, 0.000, 10:47:21.477, 1583740041477
106, -24810.75, -30000.60, -19048.49, -15441.46, -17575.69, -20565.66, -22766.75, -20881.13, 0.002, -0.030, 0.968, 10:47:21.478, 1583740041478
107, -25309.57, -30050.49, -19153.81, -15545.91, -18151.65, -20608.89, -23002.98, -21123.38, 0.000, 0.000, 0.000, 10:47:21.478, 1583740041478
108, -25571.71, -30060.32, -19224.36, -15615.75, -18523.54, -20625.18, -23106.58, -21279.58, 0.000, 0.000, 0.000, 10:47:21.478, 1583740041478
109, -25256.53, -30008.58, -19166.82, -15553.39, -18186.65, -20597.96, -22939.79, -21138.96, 0.000, 0.000, 0.000, 10:47:21.478, 1583740041478
110, -24694.23, -29952.54, -19052.65, -15468.99, -17579.42, -20571.05, -22686.48, -20869.62, 0.000, 0.000, 0.000, 10:47:21.478, 1583740041478
111, -24810.46, -29984.35, -19042.05, -15433.52, -17568.09, -20559.16, -22764.29, -20877.11, 0.000, 0.000, 0.000, 10:47:21.479, 1583740041479
112, -25303.87, -30032.41, -19145.41, -15529.81, -18142.37, -20598.34, -22999.63, -21116.27, 0.000, 0.000, 0.000, 10:47:21.479, 1583740041479
113, -25564.34, -30039.87, -19222.30, -15610.61, -18521.26, -20622.43, -23106.43, -21275.87, 0.000, 0.000, 0.000, 10:47:21.479, 1583740041479
114, -25253.85, -29999.64, -19165.55, -15554.18, -18189.65, -20598.27, -22942.97, -21137.55, 0.000, 0.000, 0.000, 10:47:21.479, 1583740041479
115, -24692.73, -29951.72, -19054.10, -15465.53, -17584.77, -20570.91, -22690.62, -20867.01, 0.000, 0.000, 0.000, 10:47:21.479, 1583740041479
116, -24810.46, -29995.01, -19054.68, -15443.02, -17582.08, -20571.56, -22775.58, -20881.60, 0.004, -0.026, 0.966, 10:47:21.479, 1583740041479
117, -25305.01, -30043.13, -19160.23, -15545.28, -18156.52, -20615.21, -23013.02, -21123.18, 0.000, 0.000, 0.000, 10:47:21.480, 1583740041480
118, -25564.47, -30062.22, -19238.28, -15634.87, -18538.65, -20642.44, -23122.74, -21286.33, 0.000, 0.000, 0.000, 10:47:21.480, 1583740041480
119, -25261.40, -30023.00, -19181.71, -15578.29, -18210.19, -20617.45, -22960.09, -21151.50, 0.000, 0.000, 0.000, 10:47:21.480, 1583740041480
120, -24699.37, -29958.85, -19065.54, -15474.09, -17600.30, -20579.83, -22701.97, -20875.68, 0.000, 0.000, 0.000, 10:47:21.480, 1583740041480
121, -24808.87, -29990.05, -19055.85, -15438.06, -17584.83, -20569.88, -22777.90, -20881.49, 0.000, 0.000, 0.000, 10:47:21.480, 1583740041480
122, -25298.80, -30045.93, -19153.48, -15534.60, -18151.18, -20605.74, -23007.03, -21116.38, 0.000, 0.000, 0.000, 10:47:21.480, 1583740041480
123, -25563.73, -30056.55, -19231.37, -15622.77, -18536.73, -20632.38, -23115.55, -21281.34, 0.000, 0.000, 0.000, 10:47:21.481, 1583740041481
124, -25263.53, -30018.73, -19177.84, -15571.83, -18210.72, -20610.81, -22954.86, -21149.53, 0.000, 0.000, 0.000, 10:47:21.481, 1583740041481
125, -24697.96, -29957.13, -19059.33, -15478.85, -17595.61, -20578.67, -22692.92, -20874.43, 0.000, 0.000, 0.000, 10:47:21.481, 1583740041481
126, -24806.50, -29992.11, -19050.64, -15443.92, -17572.96, -20570.00, -22766.12, -20877.96, 0.000, -0.026, 0.962, 10:47:21.481, 1583740041481
127, -25296.68, -30045.08, -19147.89, -15535.78, -18137.59, -20603.44, -22996.86, -21110.73, 0.000, 0.000, 0.000, 10:47:21.481, 1583740041481
128, -25563.51, -30055.74, -19226.03, -15619.11, -18526.33, -20627.89, -23108.44, -21274.86, 0.000, 0.000, 0.000, 10:47:21.484, 1583740041484
129, -25267.82, -30011.40, -19171.98, -15564.77, -18201.88, -20602.76, -22947.62, -21141.62, 0.000, 0.000, 0.000, 10:47:21.484, 1583740041484
130, -24698.99, -29951.38, -19047.13, -15461.59, -17580.61, -20562.53, -22680.56, -20857.55, 0.000, 0.000, 0.000, 10:47:21.484, 1583740041484
131, -24795.64, -29991.75, -19036.00, -15425.07, -17556.89, -20552.54, -22751.39, -20858.29, 0.000, 0.000, 0.000, 10:47:21.485, 1583740041485
132, -25292.09, -30050.51, -19144.74, -15532.09, -18134.44, -20598.85, -22991.43, -21103.09, 0.000, 0.000, 0.000, 10:47:21.485, 1583740041485
133, -25565.30, -30067.25, -19227.13, -15620.81, -18528.32, -20629.03, -23106.92, -21272.22, 0.000, 0.000, 0.000, 10:47:21.485, 1583740041485
134, -25267.75, -30023.98, -19170.84, -15559.70, -18205.56, -20601.74, -22949.88, -21140.84, 0.000, 0.000, 0.000, 10:47:21.485, 1583740041485
135, -24699.44, -29957.75, -19056.43, -15471.14, -17594.98, -20572.46, -22692.09, -20869.35, 0.000, 0.000, 0.000, 10:47:21.485, 1583740041485
136, -24793.69, -29984.39, -19049.45, -15443.47, -17569.25, -20568.72, -22764.78, -20875.10, 0.000, -0.022, 0.966, 10:47:21.485, 1583740041485
137, -25285.90, -30039.78, -19149.14, -15538.42, -18136.16, -20607.17, -22998.40, -21113.39, 0.000, 0.000, 0.000, 10:47:21.486, 1583740041486
138, -25559.62, -30054.54, -19231.04, -15625.10, -18530.62, -20634.95, -23114.56, -21281.88, 0.000, 0.000, 0.000, 10:47:21.486, 1583740041486
139, -25265.05, -30007.75, -19170.91, -15553.62, -18207.46, -20598.99, -22951.91, -21144.17, 0.000, 0.000, 0.000, 10:47:21.486, 1583740041486
140, -24699.06, -29952.88, -19057.25, -15463.09, -17596.79, -20570.06, -22695.22, -20871.77, 0.000, 0.000, 0.000, 10:47:21.486, 1583740041486
141, -24788.44, -29988.28, -19047.62, -15432.43, -17566.91, -20564.23, -22764.78, -20871.41, 0.000, 0.000, 0.000, 10:47:21.486, 1583740041486
142, -25284.96, -30040.34, -19150.77, -15534.51, -18136.54, -20607.21, -23002.31, -21110.93, 0.000, 0.000, 0.000, 10:47:21.487, 1583740041487
143, -25565.30, -30048.28, -19234.48, -15626.93, -18539.07, -20638.68, -23120.58, -21281.18, 0.000, 0.000, 0.000, 10:47:21.487, 1583740041487
144, -25274.10, -30014.88, -19179.07, -15565.82, -18224.29, -20609.98, -22963.58, -21148.84, 0.000, 0.000, 0.000, 10:47:21.487, 1583740041487
145, -24699.71, -29951.47, -19059.58, -15466.27, -17605.84, -20573.46, -22698.82, -20869.73, 0.000, 0.000, 0.000, 10:47:21.487, 1583740041487
146, -24790.10, -29990.50, -19055.78, -15444.34, -17576.21, -20574.91, -22770.75, -20875.39, 0.002, -0.018, 0.976, 10:47:21.487, 1583740041487
147, -25281.30, -30041.08, -19159.38, -15545.33, -18144.56, -20614.70, -23007.07, -21112.61, 0.000, 0.000, 0.000, 10:47:21.487, 1583740041487
148, -25559.84, -30057.44, -19237.56, -15624.38, -18542.13, -20635.29, -23120.22, -21276.45, 0.000, 0.000, 0.000, 10:47:21.488, 1583740041488
149, -25274.77, -30017.99, -19180.25, -15560.73, -18225.81, -20603.32, -22961.37, -21143.74, 0.000, 0.000, 0.000, 10:47:21.488, 1583740041488
150, -24704.06, -29946.29, -19061.25, -15465.37, -17607.18, -20567.98, -22696.59, -20865.44, 0.000, 0.000, 0.000, 10:47:21.488, 1583740041488
151, -24785.65, -29976.62, -19049.61, -15431.55, -17565.92, -20558.44, -22761.41, -20861.02, 0.000, 0.000, 0.000, 10:47:21.488, 1583740041488
152, -25280.31, -30035.31, -19151.40, -15534.28, -18130.55, -20601.63, -22995.96, -21100.72, 0.000, 0.000, 0.000, 10:47:21.488, 1583740041488
153, -25556.80, -30056.86, -19234.48, -15624.29, -18532.55, -20631.20, -23113.69, -21273.00, 0.000, 0.000, 0.000, 10:47:21.488, 1583740041488
154, -25270.90, -30019.93, -19180.90, -15566.58, -18221.05, -20605.54, -22960.56, -21146.76, 0.000, 0.000, 0.000, 10:47:21.489, 1583740041489
155, -24699.15, -29953.57, -19061.84, -15474.69, -17602.82, -20574.18, -22696.29, -20870.81, 0.000, 0.000, 0.000, 10:47:21.489, 1583740041489
156, -24778.16, -29981.22, -19048.58, -15441.12, -17559.55, -20564.77, -22757.90, -20866.18, 0.004, -0.022, 0.976, 10:47:21.489, 1583740041489
157, -25270.05, -30039.80, -19147.89, -15533.23, -18120.89, -20601.71, -22991.61, -21102.30, 0.000, 0.000, 0.000, 10:47:21.489, 1583740041489
158, -25548.02, -30052.28, -19227.13, -15621.41, -18525.53, -20628.80, -23107.39, -21271.86, 0.000, 0.000, 0.000, 10:47:21.489, 1583740041489
159, -25276.04, -30012.96, -19178.36, -15572.82, -18223.33, -20608.26, -22957.88, -21152.51, 0.000, 0.000, 0.000, 10:47:21.489, 1583740041489
160, -24702.50, -29951.36, -19059.71, -15481.47, -17603.72, -20576.93, -22692.27, -20876.62, 0.000, 0.000, 0.000, 10:47:21.490, 1583740041490
161, -24781.29, -29987.86, -19048.51, -15447.56, -17558.28, -20571.96, -22757.23, -20873.89, 0.000, 0.000, 0.000, 10:47:21.490, 1583740041490
162, -25275.84, -30044.68, -19147.20, -15536.12, -18120.02, -20608.15, -22992.12, -21110.75, 0.000, 0.000, 0.000, 10:47:21.490, 1583740041490
163, -25555.40, -30057.73, -19229.29, -15624.70, -18525.91, -20636.18, -23110.00, -21282.53, 0.000, 0.000, 0.000, 10:47:21.490, 1583740041490
164, -25272.38, -30015.75, -19176.68, -15571.54, -18223.20, -20611.53, -22958.84, -21160.04, 0.000, 0.000, 0.000, 10:47:21.490, 1583740041490
165, -24702.50, -29952.88, -19057.48, -15477.64, -17603.70, -20578.63, -22692.25, -20881.20, 0.000, 0.000, 0.000, 10:47:21.490, 1583740041490
166, -24783.81, -29988.55, -19049.07, -15445.52, -17559.89, -20573.71, -22757.34, -20875.72, 0.006, -0.026, 0.976, 10:47:21.491, 1583740041491
167, -25276.20, -30040.43, -19150.35, -15543.25, -18121.47, -20614.74, -22994.29, -21112.21, 0.000, 0.000, 0.000, 10:47:21.491, 1583740041491
168, -25561.28, -30053.55, -19235.31, -15631.78, -18532.43, -20644.54, -23115.21, -21286.68, 0.000, 0.000, 0.000, 10:47:21.491, 1583740041491
169, -25291.87, -30023.76, -19186.92, -15576.06, -18237.23, -20618.92, -22967.22, -21167.64, 0.000, 0.000, 0.000, 10:47:21.491, 1583740041491
170, -24719.06, -29970.09, -19071.45, -15486.16, -17620.48, -20590.63, -22704.77, -20893.16, 0.000, 0.000, 0.000, 10:47:21.491, 1583740041491
171, -24785.54, -29998.32, -19061.03, -15454.24, -17567.24, -20587.54, -22767.84, -20887.35, 0.000, 0.000, 0.000, 10:47:21.491, 1583740041491
172, -25276.34, -30047.16, -19160.12, -15546.73, -18127.73, -20625.65, -23004.88, -21122.82, 0.000, 0.000, 0.000, 10:47:21.492, 1583740041492
173, -25566.75, -30072.06, -19241.68, -15640.88, -18541.64, -20653.08, -23124.31, -21295.11, 0.000, 0.000, 0.000, 10:47:21.492, 1583740041492
174, -25303.11, -30039.83, -19194.02, -15593.18, -18249.55, -20628.69, -22976.72, -21175.04, 0.000, 0.000, 0.000, 10:47:21.492, 1583740041492
175, -24725.81, -29966.51, -19074.35, -15493.54, -17628.48, -20591.63, -22710.65, -20893.16, 0.000, 0.000, 0.000, 10:47:21.492, 1583740041492
176, -24788.06, -29996.87, -19060.63, -15449.77, -17571.15, -20579.03, -22769.59, -20878.74, 0.000, 0.000, 0.000, 10:47:21.492, 1583740041492
177, -25279.02, -30057.84, -19163.40, -15552.59, -18132.79, -20621.92, -23007.37, -21117.01, 0.004, -0.022, 0.972, 10:47:21.492, 1583740041492
178, -25562.35, -30067.57, -19243.33, -15638.67, -18541.73, -20645.23, -23122.70, -21287.26, 0.000, 0.000, 0.000, 10:47:21.493, 1583740041493
179, -25295.67, -30027.02, -19190.87, -15578.92, -18245.66, -20615.37, -22973.44, -21166.25, 0.000, 0.000, 0.000, 10:47:21.493, 1583740041493
180, -24713.34, -29954.53, -19065.99, -15471.16, -17618.52, -20573.57, -22702.17, -20879.52, 0.000, 0.000, 0.000, 10:47:21.493, 1583740041493
181, -24773.80, -29989.18, -19048.25, -15428.65, -17552.29, -20560.16, -22754.32, -20862.18, 0.000, 0.000, 0.000, 10:47:21.493, 1583740041493
182, -25273.68, -30050.71, -19151.80, -15534.93, -18113.43, -20606.94, -22994.45, -21103.71, 0.000, 0.000, 0.000, 10:47:21.493, 1583740041493
183, -25558.15, -30060.75, -19236.45, -15628.50, -18532.88, -20637.34, -23114.01, -21279.24, 0.000, 0.000, 0.000, 10:47:21.494, 1583740041494
184, -25292.99, -30019.24, -19187.61, -15575.59, -18246.18, -20613.34, -22969.10, -21163.32, 0.000, 0.000, 0.000, 10:47:21.494, 1583740041494
185, -24715.80, -29950.62, -19067.31, -15477.31, -17622.40, -20579.70, -22701.44, -20884.82, 0.000, 0.000, 0.000, 10:47:21.494, 1583740041494
186, -24776.60, -29978.05, -19054.84, -15444.52, -17559.13, -20576.32, -22760.76, -20876.78, 0.000, 0.000, 0.000, 10:47:21.494, 1583740041494
187, -25266.79, -30036.16, -19153.37, -15538.82, -18113.94, -20613.34, -22995.70, -21111.02, 0.004, -0.026, 0.970, 10:47:21.494, 1583740041494
188, -25553.63, -30056.99, -19237.83, -15632.14, -18532.37, -20642.48, -23116.89, -21286.15, 0.000, 0.000, 0.000, 10:47:21.495, 1583740041495
189, -25295.96, -30021.50, -19195.16, -15585.09, -18250.96, -20623.80, -22978.17, -21176.36, 0.000, 0.000, 0.000, 10:47:21.495, 1583740041495
190, -24717.16, -29954.00, -19079.89, -15492.93, -17633.04, -20593.15, -22713.82, -20900.91, 0.000, 0.000, 0.000, 10:47:21.495, 1583740041495
191, -24766.49, -29980.10, -19059.58, -15453.68, -17563.08, -20581.51, -22764.54, -20882.36, 0.000, 0.000, 0.000, 10:47:21.495, 1583740041495
192, -25258.83, -30036.36, -19161.08, -15552.30, -18120.16, -20623.78, -23002.87, -21118.82, 0.000, 0.000, 0.000, 10:47:21.495, 1583740041495
193, -25552.76, -30057.73, -19246.55, -15643.36, -18543.72, -20654.02, -23128.11, -21296.76, 0.000, 0.000, 0.000, 10:47:21.495, 1583740041495
194, -25294.44, -30027.94, -19201.06, -15587.21, -18263.48, -20628.96, -22988.43, -21183.93, 0.000, 0.000, 0.000, 10:47:21.496, 1583740041496
195, -24718.62, -29963.54, -19083.05, -15492.24, -17641.67, -20595.86, -22719.56, -20902.97, 0.000, 0.000, 0.000, 10:47:21.496, 1583740041496
196, -24770.52, -29990.81, -19064.63, -15452.92, -17566.82, -20584.64, -22768.47, -20882.09, 0.000, 0.000, 0.000, 10:47:21.496, 1583740041496
197, -25268.29, -30049.28, -19164.54, -15550.09, -18120.31, -20627.62, -23007.52, -21120.19, 0.002, -0.020, 0.968, 10:47:21.496, 1583740041496
198, -25559.46, -30068.39, -19248.05, -15642.89, -18542.52, -20655.38, -23131.28, -21295.71, 0.000, 0.000, 0.000, 10:47:21.496, 1583740041496
199, -25298.06, -30024.40, -19196.75, -15584.31, -18261.13, -20622.86, -22986.15, -21176.73, 0.000, 0.000, 0.000, 10:47:21.496, 1583740041496
200, -24717.05, -29956.54, -19077.57, -15489.38, -17637.56, -20589.29, -22718.65, -20895.21, 0.000, 0.000, 0.000, 10:47:21.496, 1583740041496
201, -24766.58, -29983.88, -19061.84, -15450.11, -17562.30, -20580.90, -22767.35, -20874.43, 0.000, 0.000, 0.000, 10:47:21.497, 1583740041497
202, -25258.92, -30045.04, -19160.45, -15543.74, -18115.24, -20619.51, -23003.21, -21108.45, 0.000, 0.000, 0.000, 10:47:21.497, 1583740041497
203, -25554.19, -30063.83, -19247.58, -15643.78, -18541.40, -20651.49, -23128.06, -21288.18, 0.000, 0.000, 0.000, 10:47:21.497, 1583740041497
204, -25303.74, -30029.84, -19202.90, -15591.35, -18267.57, -20625.85, -22988.70, -21176.09, 0.000, 0.000, 0.000, 10:47:21.497, 1583740041497
205, -24722.97, -29958.24, -19084.61, -15496.33, -17644.80, -20591.14, -22721.55, -20895.15, 0.000, 0.000, 0.000, 10:47:21.497, 1583740041497
206, -24762.85, -29983.52, -19059.87, -15448.00, -17556.54, -20576.95, -22763.93, -20867.61, 0.000, 0.000, 0.000, 10:47:21.500, 1583740041500
207, -25254.90, -30038.93, -19162.08, -15544.83, -18107.95, -20625.05, -23003.01, -21104.54, 0.000, -0.024, 0.970, 10:47:21.500, 1583740041500
208, -25555.08, -30059.05, -19249.90, -15642.55, -18537.98, -20660.07, -23127.48, -21285.01, 0.000, 0.000, 0.000, 10:47:21.500, 1583740041500
209, -25304.43, -30021.16, -19196.53, -15575.86, -18259.90, -20626.50, -22982.82, -21168.24, 0.000, 0.000, 0.000, 10:47:21.500, 1583740041500
210, -24723.73, -29956.90, -19075.58, -15479.54, -17635.35, -20593.04, -22712.75, -20887.50, 0.000, 0.000, 0.000, 10:47:21.502, 1583740041502
211, -24758.45, -29976.75, -19055.33, -15448.34, -17550.57, -20587.65, -22757.81, -20865.44, 0.000, 0.000, 0.000, 10:47:21.502, 1583740041502
212, -25251.70, -30038.53, -19158.19, -15550.00, -18102.77, -20632.43, -22996.46, -21103.64, 0.000, 0.000, 0.000, 10:47:21.502, 1583740041502
213, -25552.38, -30065.82, -19240.58, -15635.63, -18529.39, -20658.38, -23120.51, -21282.88, 0.000, 0.000, 0.000, 10:47:21.502, 1583740041502
214, -25305.79, -30024.40, -19193.33, -15588.06, -18261.17, -20635.02, -22982.93, -21176.80, 0.000, 0.000, 0.000, 10:47:21.502, 1583740041502
215, -24726.75, -29955.83, -19085.66, -15521.54, -17645.76, -20618.75, -22719.45, -20908.31, 0.000, 0.000, 0.000, 10:47:21.503, 1583740041503
216, -24761.33, -29988.48, -19068.85, -15488.13, -17560.69, -20613.74, -22764.54, -20886.70, 0.000, 0.000, 0.000, 10:47:21.503, 1583740041503
217, -25250.27, -30043.36, -19154.37, -15535.29, -18097.92, -20628.58, -22993.37, -21103.98, 0.000, -0.022, 0.968, 10:47:21.503, 1583740041503
218, -25548.78, -30052.28, -19234.88, -15608.36, -18524.48, -20647.24, -23116.78, -21276.16, 0.000, 0.000, 0.000, 10:47:21.503, 1583740041503
219, -25308.07, -30015.02, -19194.34, -15562.38, -18262.51, -20626.32, -22983.25, -21171.82, 0.000, 0.000, 0.000, 10:47:21.503, 1583740041503
220, -24725.25, -29956.97, -19075.47, -15477.46, -17637.16, -20597.94, -22712.10, -20893.87, 0.000, 0.000, 0.000, 10:47:21.503, 1583740041503
221, -24760.32, -29984.33, -19054.28, -15439.27, -17549.27, -20590.09, -22754.50, -20870.14, 0.000, 0.000, 0.000, 10:47:21.504, 1583740041504
222, -25249.74, -30035.38, -19150.17, -15529.66, -18093.54, -20627.66, -22989.19, -21100.25, 0.000, 0.000, 0.000, 10:47:21.504, 1583740041504
223, -25544.38, -30047.67, -19236.27, -15628.27, -18527.14, -20658.26, -23114.72, -21280.11, 0.000, 0.000, 0.000, 10:47:21.504, 1583740041504
224, -25308.95, -30021.92, -19198.02, -15584.80, -18271.37, -20638.17, -22983.96, -21179.35, 0.000, 0.000, 0.000, 10:47:21.504, 1583740041504
225, -24730.06, -29955.90, -19079.31, -15487.57, -17646.25, -20605.87, -22715.50, -20900.36, 0.000, 0.000, 0.000, 10:47:21.958, 1583740041958
226, -24760.44, -29980.44, -19058.15, -15443.83, -17551.30, -20596.44, -22758.01, -20872.08, 0.000, 0.000, 0.000, 10:47:21.958, 1583740041958
227, -25250.29, -30044.14, -19157.28, -15538.46, -18097.51, -20635.33, -22995.45, -21103.33, 0.002, -0.024, 0.966, 10:47:21.958, 1583740041958
228, -25552.47, -30062.69, -19243.11, -15634.46, -18533.04, -20663.74, -23120.91, -21283.04, 0.000, 0.000, 0.000, 10:47:21.958, 1583740041958
229, -25318.40, -30025.23, -19200.91, -15587.14, -18276.55, -20641.54, -22989.26, -21180.29, 0.000, 0.000, 0.000, 10:47:21.959, 1583740041959
230, -24732.05, -29954.89, -19081.28, -15493.80, -17649.74, -20608.35, -22717.42, -20898.70, 0.000, 0.000, 0.000, 10:47:21.959, 1583740041959
231, -24755.94, -29978.65, -19055.64, -15450.26, -17546.61, -20594.25, -22752.67, -20864.99, 0.000, 0.000, 0.000, 10:47:21.959, 1583740041959
232, -25254.39, -30045.91, -19154.88, -15543.22, -18093.42, -20633.90, -22991.38, -21099.08, 0.000, 0.000, 0.000, 10:47:21.959, 1583740041959
233, -25555.15, -30061.11, -19238.62, -15637.03, -18529.97, -20662.11, -23116.71, -21278.86, 0.000, 0.000, 0.000, 10:47:21.959, 1583740041959
234, -25327.34, -30033.05, -19201.24, -15593.76, -18279.79, -20645.43, -22992.26, -21183.17, 0.000, 0.000, 0.000, 10:47:21.959, 1583740041959
235, -24742.06, -29963.59, -19082.18, -15496.08, -17652.09, -20612.42, -22722.49, -20901.72, 0.000, 0.000, 0.000, 10:47:21.960, 1583740041960
236, -24757.78, -29981.47, -19060.09, -15453.57, -17549.56, -20601.65, -22759.60, -20869.80, 0.000, 0.000, 0.000, 10:47:21.960, 1583740041960
237, -25250.18, -30035.09, -19162.17, -15549.35, -18096.53, -20645.21, -23000.21, -21105.99, 0.002, -0.018, 0.970, 10:47:21.963, 1583740041963
238, -25555.20, -30063.45, -19250.91, -15650.27, -18540.26, -20679.72, -23128.40, -21290.30, 0.000, 0.000, 0.000, 10:47:21.963, 1583740041963
239, -25329.40, -30042.60, -19207.10, -15600.20, -18285.56, -20654.51, -22997.06, -21189.16, 0.000, 0.000, 0.000, 10:47:21.963, 1583740041963
240, -24751.74, -29983.10, -19083.38, -15499.62, -17653.21, -20616.96, -22721.71, -20904.22, 0.000, 0.000, 0.000, 10:47:21.963, 1583740041963
241, -24770.20, -30008.24, -19062.15, -15459.81, -17547.82, -20608.73, -22756.33, -20871.37, 0.000, 0.000, 0.000, 10:47:21.963, 1583740041963
242, -25259.06, -30055.32, -19157.54, -15555.16, -18087.52, -20647.31, -22991.27, -21102.75, 0.000, 0.000, 0.000, 10:47:21.963, 1583740041963
243, -25569.84, -30070.67, -19246.62, -15661.42, -18531.81, -20682.72, -23122.92, -21292.47, 0.000, 0.000, 0.000, 10:47:21.963, 1583740041963
244, -25345.36, -30037.01, -19208.06, -15607.93, -18286.83, -20658.60, -22998.13, -21195.20, 0.000, 0.000, 0.000, 10:47:21.964, 1583740041964
245, -24753.57, -29967.63, -19081.04, -15495.15, -17652.85, -20615.82, -22722.38, -20905.47, 0.000, 0.000, 0.000, 10:47:21.964, 1583740041964
246, -24757.82, -29980.55, -19050.59, -15443.22, -17537.00, -20599.52, -22750.52, -20864.12, 0.000, 0.000, 0.000, 10:47:21.964, 1583740041964
247, -25250.18, -30041.62, -19151.06, -15534.10, -18080.64, -20638.57, -22988.12, -21095.38, 0.002, -0.016, 0.968, 10:47:21.964, 1583740041964
248, -25557.54, -30054.27, -19241.59, -15632.05, -18527.12, -20670.80, -23119.44, -21281.03, 0.000, 0.000, 0.000, 10:47:21.964, 1583740041964
249, -25337.36, -30023.58, -19201.62, -15580.60, -18283.79, -20646.17, -22994.11, -21185.12, 0.000, 0.000, 0.000, 10:47:21.964, 1583740041964
250, -24748.10, -29958.40, -19080.16, -15484.17, -17656.80, -20612.96, -22719.90, -20903.64, 0.000, 0.000, 0.000, 10:47:21.964, 1583740041964
251, -24757.22, -29983.68, -19059.24, -15448.65, -17544.71, -20609.27, -22753.79, -20871.34, 0.000, 0.000, 0.000, 10:47:21.965, 1583740041965
252, -25250.41, -30047.07, -19155.62, -15537.10, -18081.35, -20647.07, -22992.37, -21100.45, 0.000, 0.000, 0.000, 10:47:21.965, 1583740041965
253, -25558.32, -30061.08, -19240.36, -15626.69, -18527.00, -20672.37, -23118.88, -21282.53, 0.000, 0.000, 0.000, 10:47:21.965, 1583740041965
254, -25337.76, -30027.13, -19203.70, -15583.34, -18289.92, -20651.65, -22995.07, -21190.64, 0.000, 0.000, 0.000, 10:47:21.965, 1583740041965
255, -24753.06, -29970.67, -19089.98, -15494.27, -17667.09, -20625.61, -22726.58, -20914.82, 0.000, 0.000, 0.000, 10:47:21.965, 1583740041965
0, -24757.10, -29988.82, -19058.01, -15446.71, -17545.65, -20609.89, -22750.43, -20871.92, 0.000, 0.000, 0.000, 10:47:21.965, 1583740041965
1, -25250.88, -30041.35, -19154.86, -15536.41, -18080.41, -20646.57, -22988.34, -21101.21, 0.004, -0.016, 0.964, 10:47:21.966, 1583740041966
2, -25555.46, -30058.83, -19241.52, -15632.85, -18527.03, -20673.89, -23117.89, -21281.23, 0.000, 0.000, 0.000, 10:47:21.966, 1583740041966
3, -25338.18, -30025.92, -19204.73, -15587.48, -18292.47, -20651.20, -22994.67, -21186.30, 0.000, 0.000, 0.000, 10:47:21.966, 1583740041966
4, -24754.20, -29957.08, -19086.47, -15495.39, -17665.61, -20619.95, -22723.23, -20906.01, 0.000, 0.000, 0.000, 10:47:21.966, 1583740041966
5, -24756.50, -29977.76, -19061.48, -15453.46, -17544.15, -20609.96, -22753.11, -20866.72, 0.000, 0.000, 0.000, 10:47:21.966, 1583740041966
6, -25245.22, -30032.50, -19154.26, -15536.67, -18075.12, -20644.79, -22988.63, -21092.29, 0.000, 0.000, 0.000, 10:47:21.966, 1583740041966
7, -25557.12, -30050.33, -19244.14, -15642.06, -18530.49, -20679.34, -23122.57, -21280.58, 0.000, 0.000, 0.000, 10:47:21.967, 1583740041967
8, -25347.50, -30030.82, -19212.22, -15607.26, -18304.00, -20663.03, -23007.37, -21194.62, 0.000, 0.000, 0.000, 10:47:21.967, 1583740041967
9, -24759.07, -29970.92, -19095.29, -15509.07, -17675.40, -20629.32, -22734.32, -20913.10, 0.000, 0.000, 0.000, 10:47:21.967, 1583740041967
10, -24753.19, -29986.25, -19062.46, -15451.54, -17542.63, -20610.01, -22753.25, -20864.71, 0.000, 0.000, 0.000, 10:47:21.967, 1583740041967
11, -25242.76, -30039.27, -19153.34, -15530.30, -18071.03, -20642.19, -22985.13, -21088.76, 0.000, 0.000, 0.000, 10:47:21.967, 1583740041967
12, -25558.12, -30058.54, -19246.28, -15641.55, -18527.96, -20681.44, -23120.73, -21283.38, -0.002, -0.018, 0.964, 10:47:21.967, 1583740041967
13, -25349.94, -30029.77, -19211.08, -15603.80, -18300.09, -20662.98, -23002.94, -21197.28, 0.000, 0.000, 0.000, 10:47:21.968, 1583740041968
14, -24758.94, -29967.01, -19090.65, -15507.06, -17670.04, -20628.83, -22729.64, -20914.53, 0.000, 0.000, 0.000, 10:47:21.968, 1583740041968
15, -24747.09, -29986.41, -19058.91, -15453.10, -17535.77, -20612.69, -22750.21, -20868.06, 0.000, 0.000, 0.000, 10:47:21.968, 1583740041968
16, -25233.93, -30036.21, -19149.41, -15528.70, -18061.75, -20643.58, -22984.34, -21090.81, 0.000, 0.000, 0.000, 10:47:21.968, 1583740041968
17, -25557.30, -30061.60, -19243.09, -15637.55, -18525.44, -20681.51, -23121.96, -21284.80, 0.000, 0.000, 0.000, 10:47:21.968, 1583740041968
18, -25351.26, -30034.24, -19208.64, -15596.02, -18299.73, -20659.74, -23002.38, -21195.73, 0.000, 0.000, 0.000, 10:47:21.968, 1583740041968
19, -24760.35, -29967.41, -19091.88, -15500.91, -17672.72, -20628.74, -22729.24, -20915.17, 0.000, 0.000, 0.000, 10:47:21.969, 1583740041969
20, -24749.62, -29990.63, -19061.72, -15451.85, -17537.67, -20615.39, -22747.46, -20866.47, 0.000, 0.000, 0.000, 10:47:21.969, 1583740041969
21, -25241.18, -30043.85, -19154.46, -15541.59, -18067.27, -20652.23, -22981.41, -21091.62, 0.000, 0.000, 0.000, 10:47:21.969, 1583740041969
22, -25556.38, -30064.64, -19243.33, -15648.72, -18525.91, -20684.77, -23114.23, -21281.90, 0.004, -0.018, 0.966, 10:47:21.969, 1583740041969
23, -25348.78, -30033.08, -19204.21, -15598.52, -18300.56, -20657.57, -22996.72, -21192.96, 0.000, 0.000, 0.000, 10:47:21.970, 1583740041970
24, -24754.58, -29965.26, -19081.93, -15492.04, -17667.71, -20617.11, -22719.07, -20905.63, 0.000, 0.000, 0.000, 10:47:21.970, 1583740041970
25, -24739.96, -29990.83, -19055.46, -15446.66, -17529.67, -20605.31, -22738.29, -20858.07, 0.000, 0.000, 0.000, 10:47:21.970, 1583740041970
26, -25227.68, -30033.72, -19148.76, -15531.89, -18054.87, -20640.31, -22972.32, -21082.50, 0.000, 0.000, 0.000, 10:47:21.970, 1583740041970
27, -25548.47, -30048.83, -19236.45, -15634.71, -18514.71, -20673.37, -23108.39, -21274.61, 0.000, 0.000, 0.000, 10:47:21.970, 1583740041970
28, -25343.93, -30029.43, -19198.72, -15588.37, -18296.76, -20649.46, -22989.89, -21188.31, 0.000, 0.000, 0.000, 10:47:21.970, 1583740041970
29, -24755.34, -29971.25, -19082.27, -15494.07, -17667.89, -20618.39, -22714.74, -20909.38, 0.000, 0.000, 0.000, 10:47:21.971, 1583740041971
30, -24735.76, -29988.31, -19050.37, -15442.80, -17523.63, -20602.38, -22729.20, -20857.06, 0.000, 0.000, 0.000, 10:47:21.971, 1583740041971
31, -25225.28, -30046.53, -19143.40, -15525.88, -18046.78, -20638.37, -22967.22, -21081.70, 0.000, 0.000, 0.000, 10:47:21.971, 1583740041971
32, -25545.61, -30061.93, -19233.12, -15630.44, -18509.79, -20672.37, -23106.45, -21274.95, 0.008, -0.020, 0.966, 10:47:21.971, 1583740041971
33, -25348.87, -30024.36, -19199.79, -15591.77, -18296.00, -20651.02, -22994.33, -21193.74, 0.000, 0.000, 0.000, 10:47:21.971, 1583740041971
34, -24765.24, -29963.52, -19084.32, -15502.10, -17669.66, -20622.30, -22722.02, -20916.36, 0.000, 0.000, 0.000, 10:47:21.971, 1583740041971
35, -24743.29, -29988.35, -19055.33, -15451.94, -17526.27, -20608.29, -22739.44, -20864.82, 0.000, 0.000, 0.000, 10:47:21.972, 1583740041972
36, -25223.25, -30034.91, -19143.69, -15523.89, -18047.13, -20636.98, -22972.59, -21082.52, 0.000, 0.000, 0.000, 10:47:21.972, 1583740041972
37, -25542.03, -30056.57, -19233.70, -15624.83, -18511.63, -20669.35, -23110.65, -21272.36, 0.000, 0.000, 0.000, 10:47:21.972, 1583740041972
38, -25347.99, -30031.96, -19205.56, -15589.38, -18306.44, -20652.05, -23004.24, -21195.29, 0.000, 0.000, 0.000, 10:47:21.972, 1583740041972
39, -24753.93, -29961.46, -19084.90, -15493.27, -17672.27, -20615.73, -22725.44, -20911.29, 0.000, 0.000, 0.000, 10:47:21.972, 1583740041972
40, -24733.03, -29980.37, -19055.40, -15446.71, -17523.77, -20604.60, -22739.19, -20858.78, 0.000, 0.000, 0.000, 10:47:21.972, 1583740041972
41, -25223.21, -30040.61, -19148.09, -15526.71, -18046.82, -20640.54, -22975.49, -21082.99, 0.000, 0.000, 0.000, 10:47:21.972, 1583740041972
42, -25548.36, -30061.69, -19244.09, -15639.49, -18518.78, -20679.86, -23115.62, -21281.47, 0.006, -0.024, 0.968, 10:47:21.973, 1583740041973
43, -25357.74, -30034.06, -19214.27, -15604.29, -18315.51, -20661.26, -23006.56, -21204.27, 0.000, 0.000, 0.000, 10:47:21.973, 1583740041973
44, -24768.86, -29972.93, -19095.34, -15508.89, -17684.83, -20628.11, -22731.07, -20922.73, 0.000, 0.000, 0.000, 10:47:21.973, 1583740041973
45, -24742.91, -29997.74, -19063.62, -15455.92, -17534.21, -20615.66, -22744.66, -20869.58, 0.000, 0.000, 0.000, 10:47:21.973, 1583740041973
46, -25227.16, -30053.13, -19154.73, -15538.44, -18051.09, -20650.98, -22977.91, -21093.54, 0.000, 0.000, 0.000, 10:47:21.973, 1583740041973
47, -25554.05, -30076.53, -19245.16, -15645.30, -18519.47, -20685.60, -23117.63, -21288.83, 0.000, 0.000, 0.000, 10:47:21.973, 1583740041973
48, -25371.17, -30053.93, -19210.59, -15594.30, -18312.63, -20658.44, -23006.36, -21207.58, 0.000, 0.000, 0.000, 10:47:21.973, 1583740041973
49, -24785.47, -29990.59, -19090.20, -15496.69, -17682.64, -20622.66, -22729.64, -20923.74, 0.000, 0.000, 0.000, 10:47:21.973, 1583740041973
50, -24758.00, -30015.73, -19059.33, -15448.99, -17528.13, -20608.98, -22742.03, -20867.39, 0.000, 0.000, 0.000, 10:47:21.974, 1583740041974
51, -25251.44, -30078.05, -19151.69, -15531.15, -18046.62, -20644.56, -22979.36, -21091.02, 0.000, 0.000, 0.000, 10:47:21.974, 1583740041974
52, -25586.58, -30111.51, -19247.00, -15641.06, -18522.22, -20683.54, -23122.23, -21291.04, 0.008, -0.022, 0.970, 10:47:21.974, 1583740041974
53, -25410.80, -30093.52, -19217.27, -15603.86, -18324.29, -20664.97, -23015.37, -21215.09, 0.000, 0.000, 0.000, 10:47:21.974, 1583740041974
54, -24826.28, -30036.56, -19092.81, -15505.65, -17690.22, -20628.78, -22733.96, -20928.92, 0.000, 0.000, 0.000, 10:47:21.974, 1583740041974
55, -24798.68, -30062.25, -19060.00, -15459.47, -17532.10, -20616.33, -22741.31, -20870.96, 0.000, 0.000, 0.000, 10:47:21.974, 1583740041974
56, -25295.13, -30129.19, -19151.78, -15541.53, -18046.26, -20651.92, -22976.92, -21093.50, 0.000, 0.000, 0.000, 10:47:21.974, 1583740041974
57, -25644.36, -30170.52, -19240.92, -15640.01, -18517.50, -20681.46, -23116.91, -21286.57, 0.000, 0.000, 0.000, 10:47:21.974, 1583740041974
58, -25486.22, -30175.10, -19208.44, -15593.18, -18320.29, -20655.36, -23011.14, -21207.60, 0.000, 0.000, 0.000, 10:47:21.975, 1583740041975
59, -24920.03, -30137.97, -19090.33, -15496.33, -17692.08, -20622.66, -22737.09, -20925.32, 0.000, 0.000, 0.000, 10:47:21.975, 1583740041975
60, -24899.91, -30171.26, -19056.25, -15447.13, -17526.16, -20611.35, -22745.00, -20866.11, 0.000, 0.000, 0.000, 10:47:21.975, 1583740041975
61, -25400.43, -30243.18, -19148.13, -15530.93, -18040.58, -20645.77, -22980.21, -21085.94, 0.000, 0.000, 0.000, 10:47:21.975, 1583740041975
62, -25747.42, -30292.51, -19248.25, -15643.96, -18522.71, -20686.54, -23126.43, -21288.05, 0.008, -0.016, 0.966, 10:47:21.975, 1583740041975
63, -25582.00, -30295.22, -19226.86, -15612.00, -18339.34, -20670.71, -23026.92, -21220.86, 0.000, 0.000, 0.000, 10:47:21.975, 1583740041975
64, -25002.26, -30241.06, -19103.14, -15504.09, -17705.80, -20628.13, -22743.99, -20932.21, 0.000, 0.000, 0.000, 10:47:21.975, 1583740041975
65, -24959.46, -30260.04, -19061.66, -15441.21, -17531.68, -20607.03, -22746.19, -20864.32, 0.000, 0.000, 0.000, 10:47:21.975, 1583740041975
66, -25454.26, -30328.61, -19155.58, -15522.97, -18044.76, -20646.46, -22987.92, -21089.85, 0.000, 0.000, 0.000, 10:47:21.975, 1583740041975
67, -25792.17, -30342.76, -19248.52, -15630.60, -18522.26, -20680.32, -23129.45, -21287.78, 0.000, 0.000, 0.000, 10:47:21.976, 1583740041976
68, -25631.44, -30337.96, -19223.93, -15598.48, -18338.73, -20663.76, -23028.22, -21220.19, 0.000, 0.000, 0.000, 10:47:21.976, 1583740041976
69, -25046.18, -30281.16, -19109.06, -15507.24, -17713.96, -20635.51, -22754.46, -20943.61, 0.000, 0.000, 0.000, 10:47:21.976, 1583740041976
70, -25003.91, -30295.33, -19072.99, -15458.71, -17541.13, -20624.58, -22758.68, -20882.47, 0.000, 0.000, 0.000, 10:47:21.976, 1583740041976
71, -25483.63, -30354.29, -19158.22, -15534.82, -18046.11, -20657.06, -22990.80, -21099.49, 0.000, 0.000, 0.000, 10:47:21.976, 1583740041976
72, -25822.16, -30376.13, -19254.11, -15643.38, -18528.77, -20695.21, -23138.28, -21301.79, 0.006, -0.016, 0.966, 10:47:21.977, 1583740041977
73, -25653.12, -30357.18, -19226.68, -15608.58, -18344.37, -20673.69, -23036.94, -21231.56, 0.000, 0.000, 0.000, 10:47:21.977, 1583740041977
74, -25059.99, -30308.12, -19105.62, -15513.54, -17711.75, -20639.35, -22756.31, -20948.41, 0.000, 0.000, 0.000, 10:47:21.977, 1583740041977
75, -25013.84, -30333.35, -19068.79, -15458.91, -17535.97, -20623.28, -22756.13, -20880.04, 0.000, 0.000, 0.000, 10:47:21.977, 1583740041977
76, -25488.07, -30392.94, -19155.47, -15531.38, -18041.41, -20652.59, -22988.48, -21094.32, 0.000, 0.000, 0.000, 10:47:21.977, 1583740041977
77, -25828.18, -30404.76, -19249.81, -15640.90, -18523.87, -20686.34, -23130.61, -21292.25, 0.000, 0.000, 0.000, 10:47:21.977, 1583740041977
78, -25672.07, -30373.09, -19226.97, -15611.84, -18344.14, -20671.41, -23032.29, -21227.74, 0.000, 0.000, 0.000, 10:47:21.977, 1583740041977
79, -25077.63, -30309.68, -19107.79, -15519.42, -17715.59, -20639.87, -22755.60, -20948.19, 0.000, 0.000, 0.000, 10:47:21.978, 1583740041978
80, -25013.93, -30323.87, -19069.01, -15466.40, -17538.25, -20623.37, -22755.77, -20878.90, 0.000, 0.000, 0.000, 10:47:21.978, 1583740041978
81, -25487.74, -30381.05, -19156.38, -15538.04, -18041.59, -20653.10, -22990.47, -21094.68, 0.000, 0.000, 0.000, 10:47:21.978, 1583740041978
82, -25808.53, -30400.70, -19254.96, -15645.68, -18527.05, -20689.69, -23138.03, -21296.34, 0.002, -0.016, 0.964, 10:47:21.978, 1583740041978
83, -25653.30, -30369.16, -19221.52, -15601.20, -18344.39, -20662.38, -23031.62, -21220.99, 0.000, 0.000, 0.000, 10:47:21.978, 1583740041978
84, -25075.30, -30270.12, -19094.78, -15494.36, -17707.99, -20619.01, -22745.51, -20930.96, 0.000, 0.000, 0.000, 10:47:21.978, 1583740041978
85, -25013.66, -30299.22, -19053.68, -15435.02, -17520.55, -20598.14, -22737.69, -20856.01, 0.000, 0.000, 0.000, 10:47:21.978, 1583740041978
86, -25496.57, -30389.16, -19144.27, -15511.04, -18027.49, -20632.98, -22974.80, -21074.39, 0.000, 0.000, 0.000, 10:47:21.979, 1583740041979
87, -25833.99, -30415.16, -19241.07, -15623.29, -18517.30, -20673.98, -23124.38, -21279.46, 0.000, 0.000, 0.000, 10:47:21.979, 1583740041979
88, -25678.60, -30390.91, -19220.69, -15598.16, -18348.97, -20661.39, -23031.17, -21219.25, 0.000, 0.000, 0.000, 10:47:21.979, 1583740041979
89, -25084.85, -30324.25, -19100.44, -15503.53, -17714.90, -20626.30, -22750.92, -20934.71, 0.000, 0.000, 0.000, 10:47:21.979, 1583740041979
90, -25017.77, -30329.93, -19059.38, -15445.08, -17523.52, -20609.09, -22743.59, -20860.59, 0.000, 0.000, 0.000, 10:47:22.439, 1583740042439
91, -25501.02, -30396.96, -19149.32, -15520.98, -18027.15, -20644.67, -22981.84, -21081.63, 0.000, 0.000, 0.000, 10:47:22.440, 1583740042440
92, -25838.64, -30418.53, -19244.27, -15631.60, -18516.50, -20683.16, -23130.28, -21286.86, 0.002, -0.018, 0.962, 10:47:22.440, 1583740042440
93, -25674.20, -30383.66, -19220.91, -15597.45, -18347.09, -20664.23, -23032.89, -21223.61, 0.000, 0.000, 0.000, 10:47:22.440, 1583740042440
94, -25089.41, -30309.26, -19101.78, -15502.97, -17716.39, -20629.70, -22753.45, -20941.95, 0.000, 0.000, 0.000, 10:47:22.440, 1583740042440
95, -25015.89, -30331.29, -19062.55, -15448.77, -17524.62, -20613.87, -22746.68, -20870.16, 0.000, 0.000, 0.000, 10:47:22.440, 1583740042440
96, -25487.51, -30394.10, -19152.45, -15526.57, -18029.23, -20648.34, -22982.42, -21089.23, 0.000, 0.000, 0.000, 10:47:22.440, 1583740042440
97, -25843.96, -30417.08, -19254.87, -15647.38, -18528.05, -20694.16, -23136.58, -21299.74, 0.000, 0.000, 0.000, 10:47:22.440, 1583740042440
98, -25685.21, -30387.58, -19226.03, -15611.33, -18358.65, -20672.03, -23038.97, -21233.51, 0.000, 0.000, 0.000, 10:47:22.441, 1583740042441
99, -25095.33, -30326.64, -19105.55, -15516.16, -17724.15, -20638.28, -22756.02, -20949.95, 0.000, 0.000, 0.000, 10:47:22.441, 1583740042441
100, -25014.55, -30339.12, -19064.00, -15460.30, -17527.21, -20620.06, -22743.48, -20870.47, 0.000, 0.000, 0.000, 10:47:22.441, 1583740042441
101, -25494.44, -30398.97, -19150.15, -15522.97, -18025.63, -20647.24, -22979.40, -21084.11, 0.000, 0.000, 0.000, 10:47:22.441, 1583740042441
102, -25834.06, -30406.42, -19245.57, -15625.68, -18518.13, -20680.62, -23128.73, -21287.76, 0.000, 0.000, 0.000, 10:47:22.441, 1583740042441
103, -25679.92, -30384.09, -19222.75, -15591.95, -18356.77, -20661.06, -23036.09, -21226.58, -0.002, -0.016, 0.968, 10:47:22.445, 1583740042445
104, -25084.15, -30316.47, -19106.40, -15507.17, -17730.81, -20632.56, -22759.13, -20947.25, 0.000, 0.000, 0.000, 10:47:22.445, 1583740042445
105, -24995.22, -30321.71, -19062.19, -15449.46, -17529.00, -20614.86, -22745.13, -20866.63, 0.000, 0.000, 0.000, 10:47:22.446, 1583740042446
106, -25479.09, -30381.99, -19145.25, -15513.03, -18021.45, -20641.54, -22977.53, -21078.90, 0.000, 0.000, 0.000, 10:47:22.446, 1583740042446
107, -25822.12, -30393.48, -19241.77, -15625.52, -18513.75, -20677.40, -23124.62, -21283.71, 0.000, 0.000, 0.000, 10:47:22.446, 1583740042446
108, -25662.35, -30357.15, -19220.40, -15597.70, -18356.15, -20660.39, -23031.88, -21226.38, 0.000, 0.000, 0.000, 10:47:22.446, 1583740042446
109, -25059.21, -30283.42, -19096.28, -15499.82, -17721.45, -20622.57, -22747.19, -20938.71, 0.000, 0.000, 0.000, 10:47:22.446, 1583740042446
110, -24968.89, -30287.64, -19048.47, -15437.68, -17511.21, -20600.75, -22729.40, -20853.98, 0.000, 0.000, 0.000, 10:47:22.447, 1583740042447
111, -25441.02, -30342.22, -19134.21, -15510.86, -18003.64, -20633.12, -22963.87, -21068.55, 0.000, 0.000, 0.000, 10:47:22.447, 1583740042447
112, -25778.80, -30353.42, -19231.15, -15624.32, -18500.40, -20672.14, -23112.89, -21274.75, 0.000, 0.000, 0.000, 10:47:22.447, 1583740042447
113, -25626.77, -30319.85, -19207.35, -15584.51, -18343.45, -20646.95, -23020.46, -21212.52, -0.002, -0.020, 0.966, 10:47:22.447, 1583740042447
114, -25025.44, -30249.78, -19086.58, -15484.62, -17711.83, -20608.51, -22740.96, -20926.39, 0.000, 0.000, 0.000, 10:47:22.447, 1583740042447
115, -24921.46, -30245.04, -19040.82, -15427.31, -17500.99, -20589.44, -22722.76, -20842.15, 0.000, 0.000, 0.000, 10:47:22.447, 1583740042447
116, -25396.92, -30291.84, -19131.77, -15507.64, -17999.05, -20627.29, -22962.84, -21061.29, 0.000, 0.000, 0.000, 10:47:22.448, 1583740042448
117, -25739.20, -30310.08, -19227.44, -15623.22, -18497.77, -20666.04, -23110.41, -21266.66, 0.000, 0.000, 0.000, 10:47:22.448, 1583740042448
118, -25591.67, -30277.38, -19209.76, -15596.76, -18349.15, -20651.09, -23022.32, -21211.76, 0.000, 0.000, 0.000, 10:47:22.448, 1583740042448
119, -24987.51, -30203.44, -19085.95, -15490.85, -17716.69, -20609.78, -22736.84, -20922.73, 0.000, 0.000, 0.000, 10:47:22.448, 1583740042448
120, -24887.55, -30203.44, -19043.53, -15435.02, -17504.46, -20593.27, -22719.18, -20839.65, 0.000, 0.000, 0.000, 10:47:22.448, 1583740042448
121, -25355.79, -30241.57, -19125.78, -15502.52, -17992.88, -20620.42, -22951.08, -21049.20, 0.000, 0.000, 0.000, 10:47:22.449, 1583740042449
122, -25695.21, -30251.07, -19219.66, -15608.09, -18491.51, -20653.73, -23099.52, -21254.61, 0.000, 0.000, 0.000, 10:47:22.449, 1583740042449
123, -25547.82, -30216.18, -19197.58, -15575.57, -18342.15, -20634.77, -23009.27, -21199.82, 0.002, -0.018, 0.966, 10:47:22.449, 1583740042449
124, -24949.84, -30144.88, -19074.60, -15473.82, -17708.10, -20597.78, -22727.01, -20914.28, 0.000, 0.000, 0.000, 10:47:22.449, 1583740042449
125, -24845.93, -30148.86, -19030.30, -15415.33, -17491.45, -20580.73, -22709.33, -20830.04, 0.000, 0.000, 0.000, 10:47:22.450, 1583740042450
126, -25315.92, -30206.39, -19117.36, -15486.45, -17976.23, -20611.88, -22943.77, -21042.76, 0.000, 0.000, 0.000, 10:47:22.450, 1583740042450
127, -25658.88, -30220.03, -19214.16, -15600.38, -18480.18, -20650.87, -23096.75, -21250.38, 0.000, 0.000, 0.000, 10:47:22.450, 1583740042450
128, -25513.89, -30183.28, -19197.89, -15574.56, -18339.03, -20636.61, -23013.71, -21200.12, 0.000, 0.000, 0.000, 10:47:22.450, 1583740042450
129, -24911.06, -30089.94, -19078.15, -15478.60, -17708.17, -20600.46, -22731.72, -20915.78, 0.000, 0.000, 0.000, 10:47:22.450, 1583740042450
130, -24798.43, -30097.12, -19031.06, -15421.21, -17487.33, -20582.02, -22707.11, -20827.94, 0.000, 0.000, 0.000, 10:47:22.450, 1583740042450
131, -25270.12, -30160.15, -19117.80, -15493.49, -17976.01, -20615.19, -22940.58, -21042.02, 0.000, 0.000, 0.000, 10:47:22.451, 1583740042451
132, -25608.42, -30168.57, -19218.90, -15609.72, -18483.33, -20657.71, -23097.26, -21253.51, 0.000, 0.000, 0.000, 10:47:22.451, 1583740042451
133, -25463.75, -30135.72, -19202.47, -15580.66, -18344.19, -20639.42, -23013.76, -21202.17, 0.008, -0.024, 0.968, 10:47:22.451, 1583740042451
134, -24871.93, -30064.08, -19084.61, -15483.52, -17716.01, -20604.66, -22733.76, -20920.03, 0.000, 0.000, 0.000, 10:47:22.451, 1583740042451
135, -24758.78, -30061.29, -19036.20, -15423.49, -17489.90, -20584.93, -22706.24, -20828.45, 0.000, 0.000, 0.000, 10:47:22.451, 1583740042451
136, -25226.54, -30108.94, -19120.78, -15496.67, -17971.88, -20615.88, -22937.70, -21036.97, 0.000, 0.000, 0.000, 10:47:22.451, 1583740042451
137, -25569.99, -30123.38, -19218.59, -15609.41, -18477.72, -20655.00, -23092.84, -21245.69, 0.000, 0.000, 0.000, 10:47:22.452, 1583740042452
138, -25421.02, -30082.03, -19192.26, -15564.70, -18334.91, -20624.83, -23001.64, -21186.35, 0.000, 0.000, 0.000, 10:47:22.452, 1583740042452
139, -24822.73, -30007.19, -19073.84, -15469.66, -17704.91, -20591.07, -22720.23, -20904.96, 0.000, 0.000, 0.000, 10:47:22.452, 1583740042452
140, -24710.90, -30015.11, -19030.32, -15417.05, -17480.14, -20577.15, -22697.12, -20817.54, 0.000, 0.000, 0.000, 10:47:22.452, 1583740042452
141, -25184.13, -30064.15, -19111.28, -15484.59, -17958.31, -20604.33, -22928.96, -21024.32, 0.000, 0.000, 0.000, 10:47:22.452, 1583740042452
142, -25534.83, -30074.34, -19204.39, -15594.95, -18463.37, -20638.35, -23079.99, -21229.04, 0.000, 0.000, 0.000, 10:47:22.452, 1583740042452
143, -25402.89, -30050.15, -19187.77, -15568.95, -18335.45, -20622.03, -23001.75, -21183.33, 0.006, -0.024, 0.970, 10:47:22.452, 1583740042452
144, -24804.49, -29976.01, -19069.84, -15471.99, -17707.97, -20588.68, -22723.12, -20904.45, 0.000, 0.000, 0.000, 10:47:22.453, 1583740042453
145, -24681.87, -29982.38, -19020.48, -15408.46, -17474.32, -20568.59, -22692.36, -20809.83, 0.000, 0.000, 0.000, 10:47:22.453, 1583740042453
146, -25147.05, -30038.31, -19106.56, -15482.85, -17955.67, -20603.10, -22926.81, -21020.99, 0.000, 0.000, 0.000, 10:47:22.453, 1583740042453
147, -25498.58, -30045.84, -19206.32, -15601.65, -18468.40, -20644.67, -23084.08, -21233.96, 0.000, 0.000, 0.000, 10:47:22.453, 1583740042453
148, -25371.11, -30012.76, -19190.07, -15573.87, -18339.65, -20627.40, -23004.01, -21187.89, 0.000, 0.000, 0.000, 10:47:22.453, 1583740042453
149, -24776.21, -29941.26, -19067.29, -15464.99, -17704.23, -20585.71, -22718.98, -20901.43, 0.000, 0.000, 0.000, 10:47:22.453, 1583740042453
150, -24655.89, -29946.49, -19021.85, -15407.82, -17471.11, -20568.77, -22690.69, -20808.80, 0.000, 0.000, 0.000, 10:47:22.454, 1583740042454
151, -25128.32, -30005.25, -19111.23, -15486.41, -17951.45, -20605.07, -22925.96, -21021.50, 0.000, 0.000, 0.000, 10:47:22.454, 1583740042454
152, -25480.79, -30021.32, -19207.35, -15597.32, -18461.13, -20642.66, -23079.09, -21232.21, 0.000, 0.000, 0.000, 10:47:22.454, 1583740042454
153, -25348.87, -29989.65, -19188.66, -15566.58, -18335.22, -20622.93, -23000.21, -21185.05, 0.006, -0.022, 0.974, 10:47:22.454, 1583740042454
154, -24763.41, -29924.27, -19074.75, -15479.30, -17711.88, -20594.74, -22724.17, -20909.90, 0.000, 0.000, 0.000, 10:47:22.455, 1583740042455
155, -24644.90, -29932.90, -19028.80, -15421.81, -17476.65, -20578.96, -22694.55, -20815.91, 0.000, 0.000, 0.000, 10:47:22.455, 1583740042455
156, -25107.49, -29985.40, -19111.28, -15482.09, -17947.67, -20604.53, -22922.52, -21018.66, 0.000, 0.000, 0.000, 10:47:22.455, 1583740042455
157, -25468.22, -30005.18, -19212.38, -15594.74, -18461.45, -20644.21, -23081.80, -21230.89, 0.000, 0.000, 0.000, 10:47:22.455, 1583740042455
158, -25356.87, -29984.10, -19198.72, -15575.21, -18342.56, -20632.16, -23008.13, -21192.29, 0.000, 0.000, 0.000, 10:47:22.455, 1583740042455
159, -24759.72, -29912.62, -19074.33, -15474.49, -17712.48, -20594.58, -22724.06, -20909.59, 0.000, 0.000, 0.000, 10:47:22.456, 1583740042456
160, -24627.75, -29911.57, -19025.02, -15410.52, -17469.90, -20574.94, -22691.51, -20812.98, 0.000, 0.000, 0.000, 10:47:22.456, 1583740042456
161, -25099.15, -29981.76, -19108.93, -15481.20, -17943.85, -20607.46, -22926.14, -21021.95, 0.000, 0.000, 0.000, 10:47:22.456, 1583740042456
162, -25464.87, -30011.11, -19211.30, -15596.69, -18462.09, -20649.03, -23087.59, -21236.10, 0.000, 0.000, 0.000, 10:47:22.456, 1583740042456
163, -25347.62, -29982.34, -19200.28, -15578.47, -18350.16, -20637.34, -23015.48, -21197.19, 0.004, -0.018, 0.968, 10:47:22.457, 1583740042457
164, -24750.11, -29911.24, -19085.01, -15482.85, -17725.34, -20603.59, -22734.74, -20916.92, 0.000, 0.000, 0.000, 10:47:22.457, 1583740042457
165, -24619.87, -29909.09, -19036.96, -15422.23, -17480.00, -20585.62, -22698.24, -20817.61, 0.000, 0.000, 0.000, 10:47:22.457, 1583740042457
166, -25097.88, -29975.32, -19123.53, -15495.75, -17954.20, -20620.15, -22931.48, -21026.22, 0.000, 0.000, 0.000, 10:47:22.457, 1583740042457
167, -25458.77, -30001.31, -19220.40, -15613.12, -18470.59, -20660.03, -23089.66, -21237.44, 0.000, 0.000, 0.000, 10:47:22.457, 1583740042457
168, -25347.30, -29978.27, -19206.27, -15582.32, -18356.86, -20639.13, -23016.39, -21195.13, 0.000, 0.000, 0.000, 10:47:22.458, 1583740042458
169, -24752.97, -29901.96, -19083.83, -15480.57, -17727.23, -20599.86, -22731.61, -20910.99, 0.000, 0.000, 0.000, 10:47:22.458, 1583740042458
170, -24619.80, -29910.68, -19035.57, -15424.51, -17481.66, -20586.67, -22694.20, -20813.77, 0.000, 0.000, 0.000, 10:47:22.458, 1583740042458
171, -25088.00, -29973.51, -19119.32, -15493.04, -17951.58, -20619.48, -22925.07, -21021.50, 0.000, 0.000, 0.000, 10:47:22.458, 1583740042458
172, -25448.27, -29991.59, -19217.45, -15609.25, -18469.45, -20659.13, -23081.84, -21233.80, 0.000, 0.000, 0.000, 10:47:22.458, 1583740042458
173, -25338.54, -29964.59, -19200.30, -15577.53, -18355.68, -20638.08, -23007.66, -21191.20, 0.006, -0.018, 0.970, 10:47:22.458, 1583740042458
174, -24748.52, -29889.15, -19082.44, -15485.11, -17727.41, -20605.40, -22727.19, -20911.55, 0.000, 0.000, 0.000, 10:47:22.459, 1583740042459
175, -24610.07, -29896.40, -19033.31, -15434.26, -17479.20, -20591.16, -22686.39, -20811.69, 0.000, 0.000, 0.000, 10:47:22.459, 1583740042459
176, -25075.84, -29958.09, -19114.47, -15496.62, -17941.90, -20620.02, -22917.27, -21016.43, 0.000, 0.000, 0.000, 10:47:22.459, 1583740042459
177, -25436.55, -29981.53, -19209.85, -15597.36, -18457.62, -20650.37, -23076.01, -21224.59, 0.000, 0.000, 0.000, 10:47:22.459, 1583740042459
178, -25329.02, -29963.74, -19199.72, -15571.79, -18352.17, -20631.31, -23005.89, -21186.46, 0.000, 0.000, 0.000, 10:47:22.459, 1583740042459
179, -24741.68, -29891.54, -19086.53, -15483.92, -17732.02, -20602.43, -22728.39, -20910.88, 0.000, 0.000, 0.000, 10:47:22.459, 1583740042459
180, -24603.53, -29892.08, -19038.10, -15428.67, -17479.94, -20588.91, -22688.45, -20811.44, 0.000, 0.000, 0.000, 10:47:22.460, 1583740042460
181, -25071.82, -29952.28, -19117.49, -15490.92, -17939.87, -20616.55, -22918.67, -21013.95, 0.000, 0.000, 0.000, 10:47:22.460, 1583740042460
182, -25428.93, -29977.26, -19211.61, -15604.27, -18457.40, -20652.34, -23075.67, -21223.96, 0.000, 0.000, 0.000, 10:47:22.460, 1583740042460
183, -25333.04, -29956.90, -19197.22, -15580.17, -18354.49, -20634.21, -23007.28, -21188.49, 0.004, -0.020, 0.968, 10:47:22.460, 1583740042460
184, -24748.95, -29881.76, -19083.83, -15486.14, -17730.28, -20602.81, -22729.02, -20912.94, 0.000, 0.000, 0.000, 10:47:22.460, 1583740042460
185, -24600.49, -29879.43, -19032.09, -15425.59, -17470.66, -20584.64, -22686.55, -20808.36, 0.000, 0.000, 0.000, 10:47:22.460, 1583740042460
186, -25064.46, -29940.74, -19110.16, -15483.52, -17930.93, -20609.02, -22915.54, -21008.56, 0.000, 0.000, 0.000, 10:47:22.460, 1583740042460
187, -25429.65, -29972.06, -19210.63, -15602.21, -18455.07, -20650.98, -23074.85, -21226.13, 0.000, 0.000, 0.000, 10:47:22.461, 1583740042461
188, -25334.03, -29951.61, -19206.50, -15588.44, -18362.16, -20640.85, -23012.33, -21197.81, 0.000, 0.000, 0.000, 10:47:22.461, 1583740042461
189, -24747.78, -29875.88, -19092.26, -15498.32, -17739.51, -20609.18, -22734.88, -20920.67, 0.000, 0.000, 0.000, 10:47:22.461, 1583740042461
190, -24597.51, -29886.81, -19037.94, -15433.30, -17473.68, -20587.41, -22687.18, -20811.42, 0.000, 0.000, 0.000, 10:47:22.461, 1583740042461
191, -25064.17, -29956.86, -19115.21, -15479.05, -17927.89, -20607.73, -22915.39, -21009.03, 0.000, 0.000, 0.000, 10:47:22.461, 1583740042461
192, -25428.10, -29973.71, -19207.97, -15586.00, -18447.12, -20639.87, -23069.82, -21218.02, 0.000, 0.000, 0.000, 10:47:22.461, 1583740042461
193, -25335.12, -29953.13, -19202.96, -15577.65, -18359.39, -20633.56, -23008.19, -21193.79, 0.000, 0.000, 0.000, 10:47:22.461, 1583740042461
194, -24746.17, -29884.66, -19090.42, -15486.83, -17739.95, -20603.28, -22731.92, -20918.91, 0.004, -0.020, 0.970, 10:47:22.462, 1583740042462
195, -24590.96, -29876.55, -19039.15, -15427.38, -17473.63, -20585.06, -22686.10, -20809.23, 0.000, 0.000, 0.000, 10:47:22.462, 1583740042462
196, -25050.40, -29936.14, -19117.20, -15489.07, -17929.99, -20611.01, -22913.64, -21007.46, 0.000, 0.000, 0.000, 10:47:22.462, 1583740042462
197, -25420.06, -29965.15, -19219.28, -15606.61, -18461.76, -20655.40, -23080.68, -21227.05, 0.000, 0.000, 0.000, 10:47:22.462, 1583740042462
198, -25335.05, -29934.95, -19207.95, -15584.04, -18370.07, -20638.79, -23017.09, -21195.09, 0.000, 0.000, 0.000, 10:47:22.463, 1583740042463
199, -24749.75, -29861.91, -19091.56, -15493.16, -17744.09, -20606.38, -22736.57, -20917.16, 0.000, 0.000, 0.000, 10:47:22.463, 1583740042463
200, -24590.09, -29869.28, -19037.85, -15432.00, -17472.60, -20587.21, -22687.73, -20808.36, 0.000, 0.000, 0.000, 10:47:22.463, 1583740042463
201, -25055.03, -29949.95, -19118.65, -15491.79, -17927.86, -20616.53, -22920.15, -21011.13, 0.000, 0.000, 0.000, 10:47:22.464, 1583740042464
202, -25427.81, -29975.41, -19220.53, -15610.57, -18461.96, -20660.92, -23086.04, -21231.97, 0.000, 0.000, 0.000, 10:47:22.464, 1583740042464
203, -25333.87, -29944.21, -19203.77, -15579.43, -18368.55, -20638.21, -23016.53, -21196.96, 0.000, 0.000, 0.000, 10:47:22.464, 1583740042464
204, -24746.78, -29872.17, -19089.64, -15488.01, -17745.12, -20607.79, -22738.38, -20922.55, 0.008, -0.024, 0.966, 10:47:22.464, 1583740042464
205, -24584.95, -29878.20, -19040.18, -15436.27, -17475.00, -20594.90, -22690.82, -20813.74, 0.000, 0.000, 0.000, 10:47:22.464, 1583740042464
206, -25043.88, -29937.54, -19119.68, -15500.80, -17927.19, -20623.93, -22920.48, -21012.29, 0.000, 0.000, 0.000, 10:47:22.465, 1583740042465
207, -25416.39, -29960.59, -19214.12, -15608.69, -18452.62, -20657.68, -23082.58, -21223.63, 0.000, 0.000, 0.000, 10:47:22.465, 1583740042465
208, -25337.42, -29944.23, -19205.33, -15580.77, -18369.42, -20638.44, -23023.77, -21196.18, 0.000, 0.000, 0.000, 10:47:22.465, 1583740042465
209, -24747.74, -29876.26, -19084.63, -15477.38, -17742.79, -20598.45, -22738.81, -20913.95, 0.000, 0.000, 0.000, 10:47:22.465, 1583740042465
210, -24583.25, -29871.68, -19033.49, -15424.40, -17468.25, -20585.33, -22687.42, -20805.72, 0.000, 0.000, 0.000, 10:47:22.920, 1583740042920
211, -25044.44, -29938.35, -19112.66, -15489.40, -17917.92, -20615.73, -22917.56, -21006.97, 0.000, 0.000, 0.000, 10:47:22.921, 1583740042921
212, -25422.25, -29971.52, -19212.04, -15606.77, -18449.96, -20657.15, -23082.58, -21226.76, 0.000, 0.000, 0.000, 10:47:22.921, 1583740042921
213, -25338.92, -29948.07, -19201.42, -15582.12, -18368.60, -20638.73, -23021.27, -21198.42, 0.000, 0.000, 0.000, 10:47:22.921, 1583740042921
214, -24751.94, -29883.59, -19089.37, -15491.12, -17749.34, -20607.17, -22744.82, -20924.12, 0.004, -0.018, 0.966, 10:47:22.921, 1583740042921
215, -24578.07, -29885.22, -19033.90, -15429.50, -17467.17, -20587.28, -22688.49, -20807.37, 0.000, 0.000, 0.000, 10:47:22.921, 1583740042921
216, -25044.48, -29946.49, -19108.06, -15484.26, -17910.50, -20611.04, -22913.98, -21002.30, 0.000, 0.000, 0.000, 10:47:22.922, 1583740042922
217, -25422.45, -29972.68, -19203.03, -15594.36, -18440.93, -20647.33, -23075.18, -21219.43, 0.000, 0.000, 0.000, 10:47:22.922, 1583740042922
218, -25345.69, -29958.29, -19201.15, -15584.33, -18368.78, -20639.49, -23022.07, -21202.57, 0.000, 0.000, 0.000, 10:47:22.922, 1583740042922
219, -24759.07, -29888.73, -19088.77, -15496.75, -17752.29, -20609.87, -22744.06, -20929.35, 0.000, 0.000, 0.000, 10:47:22.922, 1583740042922
220, -24585.69, -29885.94, -19034.14, -15438.55, -17469.72, -20592.35, -22688.12, -20812.60, 0.000, 0.000, 0.000, 10:47:22.922, 1583740042922
221, -25044.66, -29947.96, -19113.02, -15495.68, -17914.54, -20619.24, -22917.24, -21010.35, 0.000, 0.000, 0.000, 10:47:22.923, 1583740042923
222, -25425.89, -29971.68, -19214.36, -15608.83, -18453.09, -20660.21, -23085.30, -21232.08, 0.000, 0.000, 0.000, 10:47:22.923, 1583740042923
223, -25354.97, -29950.80, -19210.34, -15593.72, -18383.77, -20648.79, -23031.50, -21211.49, 0.000, 0.000, 0.000, 10:47:22.926, 1583740042926
224, -24769.17, -29894.92, -19091.94, -15496.11, -17761.70, -20610.39, -22748.76, -20929.88, 0.002, -0.018, 0.974, 10:47:22.927, 1583740042927
225, -24587.21, -29898.34, -19028.91, -15426.66, -17469.27, -20585.31, -22685.05, -20806.43, 0.000, 0.000, 0.000, 10:47:22.927, 1583740042927
226, -25042.16, -29951.92, -19106.20, -15482.07, -17908.20, -20610.23, -22911.52, -21001.14, 0.000, 0.000, 0.000, 10:47:22.927, 1583740042927
227, -25421.22, -29975.41, -19209.56, -15603.19, -18444.70, -20653.77, -23078.91, -21221.62, 0.000, 0.000, 0.000, 10:47:22.927, 1583740042927
228, -25347.41, -29961.06, -19206.90, -15596.42, -18378.10, -20645.21, -23026.63, -21204.90, 0.000, 0.000, 0.000, 10:47:22.927, 1583740042927
229, -24764.64, -29891.43, -19090.87, -15497.94, -17757.21, -20609.20, -22746.97, -20927.98, 0.000, 0.000, 0.000, 10:47:22.927, 1583740042927
230, -24583.05, -29888.33, -19029.69, -15425.36, -17462.66, -20585.58, -22683.04, -20805.36, 0.000, 0.000, 0.000, 10:47:22.928, 1583740042928
231, -25037.22, -29942.71, -19103.03, -15481.91, -17898.52, -20609.18, -22907.07, -20998.35, 0.000, 0.000, 0.000, 10:47:22.928, 1583740042928
232, -25419.34, -29966.00, -19206.27, -15604.78, -18438.69, -20653.37, -23076.48, -21222.44, 0.000, 0.000, 0.000, 10:47:22.928, 1583740042928
233, -25349.83, -29954.13, -19201.51, -15585.98, -18372.53, -20637.10, -23020.64, -21203.91, 0.000, 0.000, 0.000, 10:47:22.928, 1583740042928
234, -24767.63, -29891.37, -19087.90, -15492.02, -17756.65, -20603.66, -22743.10, -20928.25, 0.004, -0.018, 0.968, 10:47:22.928, 1583740042928
235, -24582.80, -29890.56, -19030.77, -15433.16, -17465.54, -20588.93, -22684.74, -20807.60, 0.000, 0.000, 0.000, 10:47:22.928, 1583740042928
236, -25034.98, -29949.30, -19101.58, -15478.69, -17897.04, -20607.97, -22906.69, -20996.07, 0.000, 0.000, 0.000, 10:47:22.928, 1583740042928
237, -25415.74, -29972.62, -19202.36, -15592.29, -18437.15, -20645.59, -23072.25, -21214.08, 0.000, 0.000, 0.000, 10:47:22.928, 1583740042928
238, -25351.82, -29957.19, -19201.80, -15585.42, -18378.70, -20635.33, -23019.68, -21200.29, 0.000, 0.000, 0.000, 10:47:22.929, 1583740042929
239, -24765.98, -29884.37, -19087.81, -15493.02, -17762.80, -20602.85, -22740.35, -20927.74, 0.000, 0.000, 0.000, 10:47:22.929, 1583740042929
240, -24578.51, -29891.50, -19031.66, -15429.45, -17469.32, -20587.52, -22681.37, -20809.00, 0.000, 0.000, 0.000, 10:47:22.931, 1583740042931
241, -25028.63, -29952.19, -19104.64, -15480.35, -17899.63, -20610.43, -22906.94, -21001.41, 0.000, 0.000, 0.000, 10:47:22.931, 1583740042931
242, -25413.42, -29974.74, -19204.02, -15596.38, -18436.43, -20649.70, -23073.41, -21222.82, 0.000, 0.000, 0.000, 10:47:22.932, 1583740042932
243, -25357.36, -29958.80, -19200.10, -15582.47, -18376.15, -20634.04, -23018.47, -21204.52, 0.000, 0.000, 0.000, 10:47:22.932, 1583740042932
244, -24779.28, -29898.43, -19085.39, -15487.23, -17758.59, -20601.13, -22739.61, -20930.71, 0.004, -0.018, 0.962, 10:47:22.932, 1583740042932
245, -24589.33, -29898.01, -19028.58, -15427.38, -17459.97, -20586.20, -22678.28, -20809.76, 0.000, 0.000, 0.000, 10:47:22.932, 1583740042932
246, -25042.31, -29967.56, -19108.55, -15487.75, -17897.11, -20616.73, -22911.14, -21005.56, 0.000, 0.000, 0.000, 10:47:22.932, 1583740042932
247, -25427.37, -29992.51, -19207.95, -15606.90, -18439.12, -20657.24, -23079.27, -21225.71, 0.000, 0.000, 0.000, 10:47:22.932, 1583740042932
248, -25374.68, -29976.57, -19208.73, -15595.24, -18389.21, -20646.95, -23032.58, -21214.42, 0.000, 0.000, 0.000, 10:47:22.932, 1583740042932
249, -24788.20, -29901.58, -19091.43, -15494.05, -17770.44, -20607.48, -22752.87, -20936.12, 0.000, 0.000, 0.000, 10:47:22.932, 1583740042932
250, -24590.05, -29892.98, -19030.74, -15429.65, -17462.84, -20585.89, -22683.24, -20807.24, 0.000, 0.000, 0.000, 10:47:22.932, 1583740042932
251, -25036.86, -29956.79, -19098.54, -15474.38, -17885.11, -20601.69, -22902.54, -20989.56, 0.000, 0.000, 0.000, 10:47:22.933, 1583740042933
252, -25419.10, -29982.67, -19196.71, -15588.24, -18425.28, -20638.68, -23069.99, -21208.56, 0.000, 0.000, 0.000, 10:47:22.933, 1583740042933
253, -25361.74, -29961.80, -19200.21, -15590.54, -18379.30, -20634.88, -23025.74, -21203.89, 0.000, 0.000, 0.000, 10:47:22.933, 1583740042933
254, -24783.41, -29890.34, -19091.09, -15495.93, -17768.05, -20602.29, -22750.32, -20933.06, 0.002, -0.020, 0.966, 10:47:22.933, 1583740042933
255, -24583.10, -29881.80, -19024.11, -15417.83, -17453.78, -20573.71, -22674.88, -20798.16, 0.000, 0.000, 0.000, 10:47:22.933, 1583740042933
0, -25030.87, -29942.28, -19091.67, -15462.74, -17873.95, -20593.13, -22896.05, -20984.22, 0.000, 0.000, 0.000, 10:47:22.933, 1583740042933
1, -25418.49, -29971.16, -19191.63, -15584.66, -18420.72, -20636.11, -23064.12, -21207.24, 0.000, 0.000, 0.000, 10:47:22.933, 1583740042933
2, -25364.96, -29965.08, -19191.70, -15581.87, -18376.87, -20628.36, -23018.18, -21199.40, 0.000, 0.000, 0.000, 10:47:22.934, 1583740042934
3, -24784.57, -29897.04, -19078.73, -15487.28, -17763.53, -20593.82, -22741.27, -20925.41, 0.000, 0.000, 0.000, 10:47:22.934, 1583740042934
4, -24578.47, -29881.02, -19018.90, -15418.66, -17452.89, -20570.82, -22668.29, -20793.07, 0.000, 0.000, 0.000, 10:47:22.934, 1583740042934
5, -25028.12, -29946.58, -19094.51, -15474.09, -17878.87, -20599.21, -22895.96, -20985.20, 0.000, 0.000, 0.000, 10:47:22.934, 1583740042934
6, -25413.69, -29976.62, -19193.58, -15589.72, -18421.44, -20638.71, -23065.21, -21207.07, 0.000, 0.000, 0.000, 10:47:22.934, 1583740042934
7, -25362.32, -29961.66, -19193.49, -15580.24, -18377.47, -20625.72, -23019.61, -21196.72, 0.000, 0.000, 0.000, 10:47:22.934, 1583740042934
8, -24788.62, -29898.97, -19084.32, -15492.04, -17768.23, -20596.10, -22745.02, -20927.45, -0.004, -0.020, 0.970, 10:47:22.935, 1583740042935
9, -24579.68, -29894.54, -19027.46, -15434.15, -17456.73, -20584.03, -22675.60, -20803.24, 0.000, 0.000, 0.000, 10:47:22.935, 1583740042935
10, -25023.69, -29946.69, -19098.27, -15486.12, -17877.37, -20609.02, -22897.28, -20992.11, 0.000, 0.000, 0.000, 10:47:22.935, 1583740042935
11, -25411.68, -29964.84, -19198.70, -15600.31, -18422.96, -20647.67, -23066.53, -21215.18, 0.000, 0.000, 0.000, 10:47:22.935, 1583740042935
12, -25364.92, -29963.90, -19201.11, -15591.19, -18387.46, -20638.01, -23024.84, -21210.58, 0.000, 0.000, 0.000, 10:47:22.935, 1583740042935
13, -24789.18, -29899.99, -19085.93, -15494.14, -17773.68, -20602.25, -22746.01, -20937.66, 0.000, 0.000, 0.000, 10:47:22.936, 1583740042936
14, -24573.51, -29886.65, -19022.65, -15429.99, -17451.50, -20580.68, -22668.47, -20803.19, 0.000, 0.000, 0.000, 10:47:22.936, 1583740042936
15, -25019.67, -29946.51, -19096.62, -15487.61, -17870.69, -20607.99, -22893.55, -20992.78, 0.000, 0.000, 0.000, 10:47:22.936, 1583740042936
16, -25412.35, -29971.54, -19201.29, -15609.18, -18423.65, -20650.93, -23068.83, -21219.47, 0.000, 0.000, 0.000, 10:47:22.936, 1583740042936
17, -25364.56, -29959.45, -19203.54, -15596.82, -18387.77, -20636.56, -23027.48, -21211.89, 0.000, 0.000, 0.000, 10:47:22.937, 1583740042937
18, -24788.29, -29898.97, -19094.29, -15513.38, -17780.46, -20607.91, -22752.78, -20944.90, 0.004, -0.020, 0.970, 10:47:22.937, 1583740042937
19, -24576.23, -29894.96, -19032.24, -15445.64, -17458.57, -20589.33, -22676.78, -20809.99, 0.000, 0.000, 0.000, 10:47:22.937, 1583740042937
20, -25014.37, -29943.45, -19098.58, -15473.80, -17868.12, -20599.97, -22895.96, -20983.79, 0.000, 0.000, 0.000, 10:47:22.937, 1583740042937
21, -25404.59, -29968.03, -19200.35, -15586.63, -18417.90, -20637.05, -23067.85, -21205.41, 0.000, 0.000, 0.000, 10:47:22.937, 1583740042937
22, -25360.31, -29957.53, -19204.93, -15584.46, -18389.05, -20631.38, -23028.53, -21204.79, 0.000, 0.000, 0.000, 10:47:22.937, 1583740042937
23, -24787.05, -29892.69, -19095.45, -15496.62, -17782.62, -20601.20, -22755.62, -20935.56, 0.000, 0.000, 0.000, 10:47:22.938, 1583740042938
24, -24569.69, -29873.69, -19028.73, -15429.45, -17455.57, -20579.18, -22676.20, -20797.25, 0.000, 0.000, 0.000, 10:47:22.938, 1583740042938
25, -25015.67, -29934.97, -19105.46, -15487.43, -17875.47, -20608.22, -22901.53, -20987.82, 0.000, 0.000, 0.000, 10:47:22.938, 1583740042938
26, -25406.76, -29972.06, -19206.76, -15599.86, -18428.37, -20646.82, -23074.80, -21211.94, 0.000, 0.000, 0.000, 10:47:22.938, 1583740042938
27, -25362.17, -29960.08, -19206.63, -15583.08, -18399.33, -20630.97, -23031.59, -21206.06, 0.000, 0.000, 0.000, 10:47:22.938, 1583740042938
28, -24789.69, -29891.37, -19094.74, -15493.00, -17791.23, -20601.02, -22757.58, -20937.91, 0.000, 0.000, 0.000, 10:47:22.938, 1583740042938
29, -24567.63, -29884.30, -19030.32, -15429.05, -17463.60, -20584.19, -22677.95, -20803.33, 0.000, -0.020, 0.972, 10:47:22.938, 1583740042938
30, -25006.77, -29944.47, -19101.85, -15478.58, -17872.10, -20606.77, -22896.95, -20985.61, 0.000, 0.000, 0.000, 10:47:22.939, 1583740042939
31, -25400.39, -29966.63, -19202.74, -15594.07, -18423.71, -20646.39, -23070.60, -21209.66, 0.000, 0.000, 0.000, 10:47:22.940, 1583740042940
32, -25368.63, -29950.13, -19206.47, -15587.68, -18403.35, -20637.88, -23034.81, -21209.84, 0.000, 0.000, 0.000, 10:47:22.940, 1583740042940
33, -24794.99, -29883.07, -19095.90, -15502.50, -17796.37, -20607.66, -22759.42, -20941.28, 0.000, 0.000, 0.000, 10:47:22.940, 1583740042940
34, -24566.20, -29875.18, -19030.32, -15436.54, -17463.53, -20589.26, -22677.41, -20802.61, 0.000, 0.000, 0.000, 10:47:22.940, 1583740042940
35, -25005.50, -29939.98, -19096.26, -15474.02, -17868.70, -20606.45, -22897.73, -20980.71, 0.000, 0.000, 0.000, 10:47:22.940, 1583740042940
36, -25401.01, -29965.91, -19203.21, -15592.40, -18427.04, -20649.08, -23076.66, -21209.59, 0.000, 0.000, 0.000, 10:47:22.940, 1583740042940
37, -25370.21, -29951.58, -19213.20, -15594.39, -18410.10, -20644.72, -23043.35, -21214.62, 0.000, 0.000, 0.000, 10:47:22.940, 1583740042940
38, -24799.28, -29886.47, -19099.39, -15502.43, -17800.57, -20610.25, -22765.65, -20944.86, 0.000, 0.000, 0.000, 10:47:22.941, 1583740042941
39, -24568.12, -29876.39, -19030.23, -15432.74, -17460.65, -20586.76, -22677.36, -20801.52, -0.004, -0.024, 0.972, 10:47:22.941, 1583740042941
40, -25007.02, -29939.56, -19099.30, -15482.49, -17865.32, -20609.40, -22897.46, -20983.46, 0.000, 0.000, 0.000, 10:47:22.941, 1583740042941
41, -25410.49, -29971.21, -19206.59, -15607.46, -18422.46, -20654.93, -23075.47, -21213.62, 0.000, 0.000, 0.000, 10:47:22.941, 1583740042941
42, -25379.94, -29959.63, -19208.55, -15599.59, -18402.44, -20642.10, -23036.67, -21213.50, 0.000, 0.000, 0.000, 10:47:22.941, 1583740042941
43, -24806.75, -29896.22, -19097.40, -15504.91, -17796.57, -20607.55, -22760.89, -20943.54, 0.000, 0.000, 0.000, 10:47:22.941, 1583740042941
44, -24562.98, -29881.53, -19025.85, -15431.67, -17454.12, -20581.29, -22669.59, -20794.92, 0.000, 0.000, 0.000, 10:47:22.941, 1583740042941
45, -25000.80, -29939.06, -19095.01, -15478.11, -17858.37, -20604.82, -22891.31, -20978.32, 0.000, 0.000, 0.000, 10:47:22.941, 1583740042941
46, -25403.34, -29962.31, -19199.63, -15599.19, -18415.47, -20647.94, -23069.41, -21207.16, 0.000, 0.000, 0.000, 10:47:22.942, 1583740042942
47, -25372.43, -29947.69, -19203.41, -15593.74, -18399.46, -20636.34, -23032.51, -21208.12, 0.000, 0.000, 0.000, 10:47:22.942, 1583740042942
48, -24794.65, -29875.16, -19083.90, -15488.51, -17786.31, -20590.36, -22749.20, -20929.21, 0.000, 0.000, 0.000, 10:47:22.942, 1583740042942
49, -24555.76, -29864.10, -19014.88, -15414.23, -17442.16, -20566.00, -22658.66, -20782.45, -0.002, -0.020, 0.974, 10:47:22.942, 1583740042942
50, -24991.78, -29923.53, -19084.03, -15464.34, -17841.03, -20590.92, -22880.45, -20965.98, 0.000, 0.000, 0.000, 10:47:22.942, 1583740042942
51, -25389.03, -29956.39, -19187.38, -15586.94, -18400.09, -20633.54, -23058.46, -21194.48, 0.000, 0.000, 0.000, 10:47:22.942, 1583740042942
52, -25365.72, -29952.10, -19196.37, -15588.58, -18395.35, -20628.80, -23027.59, -21203.67, 0.000, 0.000, 0.000, 10:47:22.942, 1583740042942
53, -24795.53, -29888.51, -19083.67, -15495.12, -17789.89, -20594.32, -22751.93, -20934.89, 0.000, 0.000, 0.000, 10:47:22.942, 1583740042942
54, -24554.44, -29880.12, -19014.40, -15418.68, -17444.78, -20570.00, -22660.62, -20787.03, 0.000, 0.000, 0.000, 10:47:22.942, 1583740042942
55, -24998.41, -29936.49, -19080.50, -15461.77, -17841.52, -20590.20, -22878.33, -20964.44, 0.000, 0.000, 0.000, 10:47:22.943, 1583740042943
56, -25403.54, -29961.82, -19184.66, -15583.41, -18400.80, -20631.35, -23054.53, -21192.18, 0.000, 0.000, 0.000, 10:47:22.943, 1583740042943
57, -25380.90, -29951.61, -19194.78, -15585.94, -18397.97, -20626.64, -23023.62, -21201.66, 0.000, 0.000, 0.000, 10:47:22.943, 1583740042943
58, -24811.08, -29885.64, -19086.24, -15498.59, -17796.14, -20598.27, -22752.98, -20938.04, 0.000, 0.000, 0.000, 10:47:22.943, 1583740042943
59, -24569.66, -29884.21, -19019.84, -15427.84, -17450.86, -20577.42, -22664.06, -20793.31, 0.004, -0.018, 0.978, 10:47:22.943, 1583740042943
60, -25001.41, -29943.83, -19084.84, -15467.76, -17840.69, -20597.36, -22880.32, -20969.42, 0.000, 0.000, 0.000, 10:47:22.943, 1583740042943
61, -25401.66, -29970.92, -19186.31, -15584.62, -18397.07, -20637.07, -23057.63, -21197.66, 0.000, 0.000, 0.000, 10:47:22.943, 1583740042943
62, -25385.75, -29959.85, -19194.25, -15580.37, -18397.18, -20627.62, -23029.43, -21206.31, 0.000, 0.000, 0.000, 10:47:22.943, 1583740042943
63, -24821.81, -29895.61, -19086.13, -15492.40, -17798.78, -20598.38, -22756.15, -20942.71, 0.000, 0.000, 0.000, 10:47:22.944, 1583740042944
64, -24569.42, -29877.40, -19018.00, -15424.07, -17446.43, -20578.83, -22661.40, -20794.86, 0.000, 0.000, 0.000, 10:47:22.944, 1583740042944
65, -25000.07, -29933.66, -19088.12, -15468.55, -17838.52, -20601.74, -22883.38, -20974.61, 0.000, 0.000, 0.000, 10:47:22.944, 1583740042944
66, -25404.88, -29978.65, -19200.21, -15600.94, -18407.29, -20652.50, -23069.48, -21211.76, 0.000, 0.000, 0.000, 10:47:22.944, 1583740042944
67, -25389.44, -29969.75, -19209.80, -15602.61, -18412.72, -20646.17, -23043.40, -21224.23, 0.000, 0.000, 0.000, 10:47:22.944, 1583740042944
68, -24824.25, -29902.14, -19096.53, -15503.77, -17811.08, -20609.89, -22767.53, -20955.83, 0.000, 0.000, 0.000, 10:47:22.944, 1583740042944
69, -24568.97, -29883.30, -19025.51, -15430.88, -17450.97, -20585.26, -22668.67, -20801.56, 0.000, -0.016, 0.970, 10:47:22.945, 1583740042945
70, -24998.88, -29945.77, -19095.94, -15475.88, -17843.53, -20606.83, -22887.22, -20977.60, 0.000, 0.000, 0.000, 10:47:22.945, 1583740042945
71, -25398.78, -29974.00, -19199.83, -15600.11, -18406.24, -20648.18, -23063.22, -21205.63, 0.000, 0.000, 0.000, 10:47:22.945, 1583740042945
72, -25390.96, -29960.14, -19206.79, -15598.59, -18411.29, -20638.53, -23033.99, -21216.70, 0.000, 0.000, 0.000, 10:47:22.945, 1583740042945
73, -24828.00, -29892.35, -19095.74, -15503.44, -17813.42, -20604.24, -22762.14, -20952.01, 0.000, 0.000, 0.000, 10:47:22.945, 1583740042945
74, -24565.01, -29879.74, -19023.59, -15425.05, -17452.11, -20577.44, -22662.08, -20796.08, 0.000, 0.000, 0.000, 10:47:23.399, 1583740043399
75, -24992.20, -29941.99, -19088.66, -15464.59, -17836.07, -20597.06, -22878.35, -20968.62, 0.000, 0.000, 0.000, 10:47:23.400, 1583740043400
76, -25400.21, -29972.79, -19197.15, -15592.75, -18404.31, -20644.00, -23063.36, -21201.57, 0.000, 0.000, 0.000, 10:47:23.400, 1583740043400
77, -25393.62, -29965.78, -19209.98, -15605.36, -18417.66, -20645.28, -23043.02, -21221.55, 0.000, 0.000, 0.000, 10:47:23.400, 1583740043400
