%OpenBCI Raw EEG Data
%Number of channels = 8
%Sample Rate = 250.0 Hz
%First Column = SampleIndex
%Last Column = Timestamp 
%Other Columns = EEG data in microvolts followed by Accel Data (in G) interleaved with Aux Data
0, 0.00, 0.00, 0.00, 0.00, 0.00, 0.00, 0.00, 0.00, 0.000, 0.000, 0.000, 10:34:46.069, 1583739286069
1, -28173.97, -32961.45, -22012.58, -17749.79, -22351.92, -22372.80, -25445.70, -24661.13, 0.000, -0.016, 0.960, 10:34:46.551, 1583739286551
2, -28608.29, -32985.86, -22157.33, -17911.66, -22973.41, -22533.71, -25651.20, -24976.51, 0.000, 0.000, 0.000, 10:34:46.552, 1583739286552
3, -28304.97, -32946.40, -22093.51, -17832.94, -22642.47, -22444.62, -25454.79, -24824.12, 0.000, 0.000, 0.000, 10:34:46.552, 1583739286552
4, -27579.12, -32871.52, -21908.93, -17681.62, -21776.19, -22323.96, -25081.72, -24390.27, 0.000, 0.000, 0.000, 10:34:46.552, 1583739286552
5, -27555.05, -32895.93, -21868.72, -17606.11, -21621.91, -22225.19, -25113.44, -24312.71, 0.000, 0.000, 0.000, 10:34:46.552, 1583739286552
6, -28167.02, -32964.75, -22014.84, -17750.73, -22355.70, -22377.47, -25449.94, -24669.64, 0.000, 0.000, 0.000, 10:34:46.552, 1583739286552
7, -28599.91, -32993.50, -22159.23, -17919.44, -22977.30, -22546.76, -25654.79, -24989.56, 0.000, 0.000, 0.000, 10:34:46.552, 1583739286552
8, -28306.65, -32953.22, -22107.69, -17855.38, -22658.52, -22467.10, -25467.29, -24848.08, 0.000, -0.014, 0.956, 10:34:46.553, 1583739286553
9, -27573.02, -32872.06, -21917.18, -17693.71, -21789.04, -22336.43, -25089.18, -24406.14, 0.000, 0.000, 0.000, 10:34:46.553, 1583739286553
10, -27548.90, -32900.67, -21875.27, -17617.85, -21630.45, -22237.50, -25121.08, -24326.52, 0.000, 0.000, 0.000, 10:34:46.553, 1583739286553
11, -28164.34, -32959.12, -22024.09, -17769.44, -22360.95, -22396.09, -25455.91, -24682.56, 0.000, 0.000, 0.000, 10:34:46.553, 1583739286553
12, -28596.35, -32978.19, -22167.86, -17939.55, -22986.15, -22568.62, -25661.41, -24999.89, 0.000, 0.000, 0.000, 10:34:46.553, 1583739286553
13, -28306.29, -32943.77, -22119.26, -17869.88, -22669.52, -22484.76, -25478.71, -24856.61, 0.000, 0.000, 0.000, 10:34:46.553, 1583739286553
14, -27577.38, -32868.04, -21927.35, -17701.42, -21800.01, -22348.37, -25099.53, -24412.73, 0.000, 0.000, 0.000, 10:34:46.556, 1583739286556
15, -27543.36, -32887.73, -21877.69, -17620.93, -21630.10, -22241.42, -25121.10, -24322.14, 0.000, 0.000, 0.000, 10:34:46.557, 1583739286557
16, -28150.43, -32943.77, -22023.82, -17772.30, -22354.67, -22395.98, -25452.24, -24672.10, 0.000, 0.000, 0.000, 10:34:46.557, 1583739286557
17, -28582.05, -32967.55, -22158.11, -17932.25, -22974.04, -22558.77, -25648.98, -24982.07, 0.000, 0.000, 0.000, 10:34:46.557, 1583739286557
18, -28303.32, -32937.29, -22095.86, -17850.28, -22654.97, -22464.91, -25458.66, -24837.93, 0.000, -0.014, 0.960, 10:34:46.557, 1583739286557
19, -27579.95, -32872.22, -21905.51, -17682.38, -21781.80, -22328.79, -25080.94, -24397.64, 0.000, 0.000, 0.000, 10:34:46.557, 1583739286557
20, -27552.86, -32903.04, -21866.06, -17612.88, -21613.67, -22229.23, -25109.41, -24315.81, 0.000, 0.000, 0.000, 10:34:46.557, 1583739286557
21, -28164.40, -32969.11, -22015.93, -17762.93, -22340.77, -22385.45, -25446.28, -24668.32, 0.000, 0.000, 0.000, 10:34:46.557, 1583739286557
22, -28591.72, -32986.23, -22151.92, -17917.63, -22963.71, -22548.48, -25649.07, -24978.43, 0.000, 0.000, 0.000, 10:34:46.557, 1583739286557
23, -28310.18, -32940.57, -22095.55, -17838.08, -22658.99, -22455.54, -25466.71, -24837.37, 0.000, 0.000, 0.000, 10:34:46.558, 1583739286558
24, -27584.38, -32867.10, -21910.61, -17680.61, -21792.44, -22324.01, -25091.15, -24400.30, 0.000, 0.000, 0.000, 10:34:46.558, 1583739286558
25, -27549.78, -32898.23, -21873.17, -17610.58, -21621.60, -22224.65, -25115.47, -24316.62, 0.000, 0.000, 0.000, 10:34:46.558, 1583739286558
26, -28150.05, -32956.44, -22021.25, -17760.49, -22341.91, -22379.66, -25450.68, -24665.42, 0.000, 0.000, 0.000, 10:34:46.558, 1583739286558
27, -28584.35, -32979.02, -22157.93, -17921.45, -22966.84, -22548.17, -25654.15, -24978.54, 0.000, 0.000, 0.000, 10:34:46.558, 1583739286558
28, -28317.40, -32945.84, -22099.46, -17846.62, -22665.47, -22457.82, -25471.80, -24843.02, -0.002, -0.020, 0.968, 10:34:46.558, 1583739286558
29, -27595.66, -32865.54, -21915.59, -17684.97, -21801.49, -22327.69, -25098.66, -24407.37, 0.000, 0.000, 0.000, 10:34:46.558, 1583739286558
30, -27553.93, -32898.66, -21871.56, -17606.58, -21621.15, -22224.99, -25118.38, -24318.16, 0.000, 0.000, 0.000, 10:34:46.558, 1583739286558
31, -28156.98, -32969.58, -22021.59, -17762.24, -22341.22, -22385.88, -25453.52, -24670.54, 0.000, 0.000, 0.000, 10:34:46.559, 1583739286559
32, -28593.80, -32987.02, -22165.82, -17933.41, -22974.51, -22562.21, -25661.30, -24989.45, 0.000, 0.000, 0.000, 10:34:46.559, 1583739286559
33, -28328.94, -32949.75, -22109.99, -17861.52, -22675.89, -22474.14, -25482.53, -24858.04, 0.000, 0.000, 0.000, 10:34:46.559, 1583739286559
34, -27605.74, -32882.30, -21917.87, -17695.67, -21805.82, -22339.27, -25101.52, -24420.98, 0.000, 0.000, 0.000, 10:34:46.560, 1583739286560
35, -27555.30, -32906.33, -21869.21, -17604.05, -21613.46, -22225.43, -25114.02, -24320.53, 0.000, 0.000, 0.000, 10:34:46.561, 1583739286561
36, -28148.87, -32962.43, -22008.33, -17747.44, -22321.72, -22375.06, -25440.91, -24662.49, 0.000, 0.000, 0.000, 10:34:46.561, 1583739286561
37, -28580.44, -32978.12, -22143.13, -17918.52, -22950.35, -22549.42, -25644.96, -24977.96, 0.000, 0.000, 0.000, 10:34:46.561, 1583739286561
38, -28321.96, -32941.73, -22093.98, -17850.46, -22663.97, -22464.89, -25474.91, -24851.23, 0.000, -0.016, 0.966, 10:34:46.561, 1583739286561
39, -27595.89, -32869.34, -21913.63, -17690.11, -21803.57, -22334.85, -25100.27, -24417.13, 0.000, 0.000, 0.000, 10:34:46.561, 1583739286561
40, -27542.13, -32891.95, -21866.53, -17607.61, -21606.87, -22226.91, -25112.34, -24318.45, 0.000, 0.000, 0.000, 10:34:46.561, 1583739286561
41, -28138.81, -32952.10, -22006.28, -17747.78, -22315.18, -22373.49, -25438.90, -24657.37, 0.000, 0.000, 0.000, 10:34:46.562, 1583739286562
42, -28583.72, -32978.52, -22147.31, -17915.46, -22950.79, -22550.27, -25645.85, -24976.11, 0.000, 0.000, 0.000, 10:34:46.562, 1583739286562
43, -28330.88, -32943.05, -22102.77, -17850.82, -22672.76, -22467.39, -25477.43, -24853.28, 0.000, 0.000, 0.000, 10:34:46.562, 1583739286562
44, -27605.54, -32865.04, -21923.19, -17696.59, -21813.20, -22338.73, -25103.09, -24420.49, 0.000, 0.000, 0.000, 10:34:46.562, 1583739286562
45, -27545.42, -32893.59, -21875.38, -17611.52, -21615.16, -22229.19, -25114.44, -24318.59, 0.000, 0.000, 0.000, 10:34:46.562, 1583739286562
46, -28142.70, -32956.46, -22019.80, -17759.22, -22326.55, -22382.97, -25445.94, -24662.76, 0.000, 0.000, 0.000, 10:34:46.562, 1583739286562
47, -28585.24, -32978.01, -22159.63, -17930.35, -22967.06, -22561.52, -25655.04, -24984.58, 0.000, 0.000, 0.000, 10:34:46.562, 1583739286562
48, -28331.57, -32944.08, -22104.76, -17851.98, -22686.15, -22466.83, -25478.13, -24856.90, 0.002, -0.018, 0.968, 10:34:46.563, 1583739286563
49, -27609.03, -32875.77, -21917.38, -17688.68, -21815.77, -22331.67, -25097.12, -24419.62, 0.000, 0.000, 0.000, 10:34:46.563, 1583739286563
50, -27543.16, -32896.69, -21868.41, -17606.47, -21611.14, -22224.14, -25103.40, -24316.08, 0.000, 0.000, 0.000, 10:34:46.563, 1583739286563
51, -28142.30, -32959.39, -22013.76, -17753.23, -22315.60, -22376.80, -25433.80, -24660.59, 0.000, 0.000, 0.000, 10:34:46.563, 1583739286563
52, -28587.57, -32979.46, -22157.87, -17929.27, -22960.81, -22559.53, -25645.18, -24983.66, 0.000, 0.000, 0.000, 10:34:46.563, 1583739286563
53, -28343.62, -32947.05, -22108.65, -17861.14, -22692.18, -22474.70, -25479.13, -24865.69, 0.000, 0.000, 0.000, 10:34:46.563, 1583739286563
54, -27619.18, -32880.60, -21919.21, -17697.08, -21824.51, -22340.25, -25101.66, -24430.97, 0.000, 0.000, 0.000, 10:34:46.563, 1583739286563
55, -27549.80, -32902.57, -21856.18, -17610.60, -21602.02, -22227.71, -25100.74, -24321.54, 0.000, 0.000, 0.000, 10:34:46.563, 1583739286563
56, -28140.09, -32960.46, -22001.94, -17756.52, -22306.39, -22378.43, -25432.93, -24662.69, 0.000, 0.000, 0.000, 10:34:46.564, 1583739286564
57, -28582.87, -32985.07, -22148.61, -17920.71, -22954.97, -22556.91, -25645.43, -24983.68, 0.000, 0.000, 0.000, 10:34:46.564, 1583739286564
58, -28345.30, -32955.48, -22104.91, -17852.70, -22693.19, -22472.46, -25482.35, -24867.61, 0.000, -0.016, 0.970, 10:34:46.564, 1583739286564
59, -27615.65, -32875.53, -21916.13, -17685.79, -21823.44, -22334.00, -25100.18, -24426.57, 0.000, 0.000, 0.000, 10:34:46.564, 1583739286564
60, -27535.76, -32894.70, -21865.75, -17600.88, -21605.17, -22223.02, -25102.04, -24315.32, 0.000, 0.000, 0.000, 10:34:46.564, 1583739286564
61, -28129.89, -32955.46, -22012.82, -17746.86, -22308.72, -22372.91, -25434.03, -24655.76, 0.000, 0.000, 0.000, 10:34:46.564, 1583739286564
62, -28583.10, -32973.45, -22157.71, -17926.99, -22961.54, -22561.98, -25651.17, -24983.97, 0.000, 0.000, 0.000, 10:34:46.564, 1583739286564
63, -28345.30, -32945.51, -22110.77, -17862.22, -22704.74, -22478.14, -25489.50, -24871.08, 0.000, 0.000, 0.000, 10:34:46.564, 1583739286564
64, -27613.70, -32871.61, -21921.72, -17694.20, -21834.86, -22339.61, -25109.05, -24431.08, 0.000, 0.000, 0.000, 10:34:46.565, 1583739286565
65, -27529.37, -32887.71, -21864.50, -17593.71, -21605.20, -22218.86, -25104.61, -24309.60, 0.000, 0.000, 0.000, 10:34:46.565, 1583739286565
66, -28119.83, -32952.84, -22002.79, -17736.98, -22298.68, -22364.73, -25429.65, -24646.08, 0.000, 0.000, 0.000, 10:34:46.565, 1583739286565
67, -28573.98, -32978.12, -22151.99, -17919.44, -22953.86, -22555.08, -25645.36, -24976.58, 0.000, 0.000, 0.000, 10:34:46.565, 1583739286565
68, -28341.43, -32942.04, -22105.16, -17854.82, -22702.82, -22472.26, -25483.54, -24868.46, 0.000, 0.000, 0.000, 10:34:46.565, 1583739286565
69, -27615.33, -32874.65, -21924.89, -17696.50, -21839.06, -22342.20, -25105.72, -24436.24, 0.004, -0.022, 0.972, 10:34:46.565, 1583739286565
70, -27529.23, -32892.63, -21868.46, -17607.52, -21605.04, -22228.54, -25099.80, -24318.47, 0.000, 0.000, 0.000, 10:34:46.565, 1583739286565
71, -28119.03, -32956.21, -21999.75, -17745.41, -22289.67, -22369.02, -25422.02, -24651.16, 0.000, 0.000, 0.000, 10:34:46.565, 1583739286565
72, -28571.99, -32976.00, -22145.10, -17925.47, -22945.32, -22555.01, -25636.89, -24977.27, 0.000, 0.000, 0.000, 10:34:46.565, 1583739286565
73, -28344.65, -32940.08, -22103.68, -17856.07, -22700.32, -22468.35, -25479.24, -24867.46, 0.000, 0.000, 0.000, 10:34:46.566, 1583739286566
74, -27611.94, -32866.70, -21916.89, -17687.31, -21831.06, -22330.67, -25097.79, -24426.72, 0.000, 0.000, 0.000, 10:34:46.566, 1583739286566
75, -27520.43, -32888.29, -21854.39, -17596.97, -21586.62, -22215.44, -25088.63, -24303.86, 0.000, 0.000, 0.000, 10:34:46.566, 1583739286566
76, -28111.92, -32953.45, -21990.85, -17734.90, -22272.51, -22356.86, -25415.03, -24637.92, 0.000, 0.000, 0.000, 10:34:46.566, 1583739286566
77, -28575.18, -32982.73, -22146.76, -17917.22, -22941.52, -22550.72, -25637.32, -24971.28, 0.000, 0.000, 0.000, 10:34:46.566, 1583739286566
78, -28355.67, -32951.28, -22111.82, -17857.46, -22707.61, -22471.71, -25485.10, -24869.94, 0.000, 0.000, 0.000, 10:34:46.566, 1583739286566
79, -27623.98, -32870.14, -21922.12, -17688.88, -21837.41, -22334.04, -25101.54, -24430.43, 0.006, -0.020, 0.970, 10:34:46.566, 1583739286566
80, -27523.42, -32894.64, -21859.45, -17589.86, -21590.46, -22215.60, -25089.68, -24301.93, 0.000, 0.000, 0.000, 10:34:46.566, 1583739286566
81, -28114.00, -32962.21, -22005.40, -17730.63, -22282.25, -22358.14, -25422.61, -24637.68, 0.000, 0.000, 0.000, 10:34:46.566, 1583739286566
82, -28570.89, -32980.69, -22157.11, -17916.85, -22946.01, -22553.18, -25646.14, -24972.31, 0.000, 0.000, 0.000, 10:34:46.567, 1583739286567
83, -28354.53, -32946.65, -22117.21, -17853.99, -22712.68, -22473.20, -25495.05, -24873.09, 0.000, 0.000, 0.000, 10:34:46.567, 1583739286567
84, -27623.36, -32868.11, -21930.77, -17692.59, -21846.33, -22339.96, -25112.45, -24437.14, 0.000, 0.000, 0.000, 10:34:46.567, 1583739286567
85, -27517.52, -32887.04, -21872.41, -17605.06, -21597.55, -22228.50, -25099.38, -24312.91, 0.000, 0.000, 0.000, 10:34:46.567, 1583739286567
86, -28107.74, -32953.29, -22004.76, -17733.22, -22279.12, -22361.78, -25425.35, -24641.23, 0.000, 0.000, 0.000, 10:34:46.567, 1583739286567
87, -28569.91, -32976.24, -22158.22, -17922.37, -22948.18, -22559.88, -25648.58, -24977.29, 0.000, 0.000, 0.000, 10:34:46.567, 1583739286567
88, -28356.63, -32950.49, -22125.19, -17872.88, -22723.83, -22488.11, -25502.27, -24885.74, 0.000, 0.000, 0.000, 10:34:46.567, 1583739286567
89, -27628.50, -32878.77, -21935.53, -17702.96, -21854.02, -22349.69, -25118.53, -24448.74, 0.006, -0.018, 0.976, 10:34:46.567, 1583739286567
90, -27519.06, -32889.05, -21863.58, -17598.33, -21590.94, -22226.42, -25095.73, -24313.94, 0.000, 0.000, 0.000, 10:34:46.567, 1583739286567
91, -28108.14, -32959.93, -21995.88, -17733.31, -22264.71, -22362.36, -25420.46, -24643.04, 0.000, 0.000, 0.000, 10:34:46.568, 1583739286568
92, -28570.47, -32983.60, -22149.26, -17923.06, -22937.07, -22559.73, -25644.11, -24979.24, 0.000, 0.000, 0.000, 10:34:46.568, 1583739286568
93, -28364.41, -32959.23, -22125.77, -17877.60, -22724.77, -22489.88, -25503.29, -24892.38, 0.000, 0.000, 0.000, 10:34:46.568, 1583739286568
94, -27635.74, -32888.96, -21937.37, -17714.12, -21856.92, -22354.89, -25121.44, -24458.15, 0.000, 0.000, 0.000, 10:34:46.568, 1583739286568
95, -27515.09, -32900.36, -21860.43, -17599.14, -21582.04, -22222.04, -25089.03, -24311.79, 0.000, 0.000, 0.000, 10:34:46.568, 1583739286568
96, -28103.32, -32967.21, -21992.04, -17730.23, -22256.99, -22352.68, -25410.80, -24636.63, 0.000, 0.000, 0.000, 10:34:46.568, 1583739286568
97, -28575.70, -32990.55, -22144.32, -17924.18, -22932.98, -22553.11, -25639.21, -24976.80, 0.000, 0.000, 0.000, 10:34:46.569, 1583739286569
98, -28374.38, -32959.81, -22108.94, -17861.50, -22716.59, -22474.28, -25494.96, -24882.65, 0.000, 0.000, 0.000, 10:34:46.569, 1583739286569
99, -27639.29, -32885.90, -21919.17, -17689.10, -21848.65, -22332.61, -25109.37, -24441.61, 0.006, -0.020, 0.970, 10:34:46.569, 1583739286569
100, -27515.24, -32901.59, -21860.23, -17592.86, -21583.13, -22214.32, -25088.71, -24305.06, 0.000, 0.000, 0.000, 10:34:46.569, 1583739286569
101, -28096.83, -32964.46, -21996.64, -17727.44, -22254.80, -22348.97, -25413.33, -24631.60, 0.000, 0.000, 0.000, 10:34:46.569, 1583739286569
102, -28561.48, -32989.54, -22147.74, -17912.06, -22930.79, -22544.66, -25638.99, -24966.45, 0.000, 0.000, 0.000, 10:34:46.569, 1583739286569
103, -28356.36, -32954.00, -22114.10, -17854.51, -22720.86, -22465.36, -25493.24, -24875.17, 0.000, 0.000, 0.000, 10:34:46.569, 1583739286569
104, -27628.37, -32872.44, -21931.13, -17696.14, -21858.11, -22336.95, -25113.73, -24443.33, 0.000, 0.000, 0.000, 10:34:46.569, 1583739286569
105, -27505.81, -32887.77, -21864.07, -17600.79, -21583.00, -22223.73, -25092.58, -24306.22, 0.000, 0.000, 0.000, 10:34:46.570, 1583739286570
106, -28086.24, -32955.07, -21993.27, -17726.43, -22249.19, -22352.19, -25413.11, -24628.36, 0.000, 0.000, 0.000, 10:34:46.570, 1583739286570
107, -28552.77, -32974.88, -22142.02, -17913.56, -22923.93, -22549.02, -25634.99, -24963.84, 0.000, 0.000, 0.000, 10:34:46.570, 1583739286570
108, -28366.84, -32953.85, -22112.18, -17863.42, -22722.45, -22477.52, -25495.83, -24881.83, 0.000, 0.000, 0.000, 10:34:46.570, 1583739286570
109, -27640.41, -32883.73, -21922.14, -17697.48, -21854.62, -22341.60, -25111.20, -24447.04, 0.006, -0.022, 0.968, 10:34:46.570, 1583739286570
110, -27504.47, -32895.33, -21851.22, -17591.74, -21572.88, -22217.32, -25080.51, -24299.59, 0.000, 0.000, 0.000, 10:34:46.570, 1583739286570
111, -28084.27, -32961.42, -21985.42, -17716.48, -22237.73, -22344.79, -25403.81, -24621.27, 0.000, 0.000, 0.000, 10:34:46.570, 1583739286570
112, -28554.31, -32982.43, -22136.21, -17903.70, -22915.54, -22543.61, -25631.39, -24960.10, 0.000, 0.000, 0.000, 10:34:46.571, 1583739286571
113, -28370.93, -32953.22, -22107.84, -17851.76, -22723.54, -22470.65, -25495.56, -24880.20, 0.000, 0.000, 0.000, 10:34:46.571, 1583739286571
114, -27642.96, -32877.58, -21926.70, -17688.92, -21863.94, -22335.94, -25114.20, -24445.03, 0.000, 0.000, 0.000, 10:34:46.571, 1583739286571
115, -27507.49, -32890.21, -21854.28, -17588.45, -21575.71, -22215.11, -25080.67, -24298.49, 0.000, 0.000, 0.000, 10:34:46.571, 1583739286571
116, -28086.73, -32955.39, -21984.57, -17713.87, -22233.77, -22340.30, -25402.18, -24619.37, 0.000, 0.000, 0.000, 10:34:46.571, 1583739286571
117, -28564.21, -32989.59, -22141.08, -17912.44, -22923.63, -22549.13, -25635.42, -24966.61, 0.000, 0.000, 0.000, 10:34:46.571, 1583739286571
118, -28379.65, -32963.61, -22115.06, -17864.79, -22734.83, -22479.39, -25502.58, -24890.63, 0.000, 0.000, 0.000, 10:34:46.572, 1583739286572
119, -27651.05, -32884.31, -21936.16, -17704.86, -21872.23, -22347.03, -25119.36, -24458.44, 0.006, -0.022, 0.972, 10:34:46.572, 1583739286572
120, -27509.39, -32897.03, -21865.41, -17602.54, -21576.65, -22224.47, -25081.54, -24306.63, 0.000, 0.000, 0.000, 10:34:46.572, 1583739286572
121, -28088.70, -32963.32, -21990.38, -17725.40, -22230.24, -22346.60, -25403.25, -24624.63, 0.000, 0.000, 0.000, 10:34:47.032, 1583739287032
122, -28566.29, -32988.27, -22133.50, -17906.32, -22911.79, -22542.25, -25629.83, -24963.57, 0.000, 0.000, 0.000, 10:34:47.032, 1583739287032
123, -28387.79, -32960.33, -22101.74, -17853.88, -22726.94, -22469.00, -25496.12, -24886.25, 0.000, 0.000, 0.000, 10:34:47.033, 1583739287033
124, -27657.85, -32880.44, -21920.38, -17693.69, -21865.57, -22336.57, -25113.48, -24452.23, 0.000, 0.000, 0.000, 10:34:47.033, 1583739287033
125, -27508.22, -32895.66, -21854.62, -17599.70, -21569.39, -22221.21, -25076.69, -24302.27, 0.000, 0.000, 0.000, 10:34:47.033, 1583739287033
126, -28080.47, -32962.50, -21980.75, -17721.36, -22222.57, -22340.99, -25394.82, -24616.11, 0.000, 0.000, 0.000, 10:34:47.033, 1583739287033
127, -28558.02, -32977.72, -22128.43, -17904.13, -22908.88, -22538.74, -25625.51, -24954.20, 0.000, 0.000, 0.000, 10:34:47.033, 1583739287033
128, -28383.56, -32948.93, -22102.48, -17857.23, -22732.15, -22470.88, -25499.29, -24883.68, 0.000, 0.000, 0.000, 10:34:47.033, 1583739287033
129, -27650.94, -32881.34, -21923.53, -17695.07, -21871.92, -22337.48, -25115.54, -24449.75, 0.004, -0.020, 0.964, 10:34:47.033, 1583739287033
130, -27500.18, -32897.39, -21859.09, -17603.50, -21571.58, -22222.86, -25081.09, -24299.94, 0.000, 0.000, 0.000, 10:34:47.037, 1583739287037
131, -28075.76, -32955.12, -21994.63, -17732.15, -22227.11, -22349.31, -25407.23, -24621.25, 0.000, 0.000, 0.000, 10:34:47.037, 1583739287037
132, -28560.79, -32981.81, -22142.33, -17915.91, -22918.38, -22549.51, -25639.66, -24963.41, 0.000, 0.000, 0.000, 10:34:47.038, 1583739287038
133, -28393.67, -32957.76, -22114.86, -17863.20, -22744.33, -22477.20, -25511.52, -24891.73, 0.000, 0.000, 0.000, 10:34:47.038, 1583739287038
134, -27666.34, -32881.40, -21931.51, -17690.13, -21880.14, -22337.26, -25126.18, -24452.67, 0.000, 0.000, 0.000, 10:34:47.038, 1583739287038
135, -27507.64, -32892.60, -21858.87, -17586.80, -21569.41, -22215.55, -25083.13, -24293.82, 0.000, 0.000, 0.000, 10:34:47.038, 1583739287038
136, -28074.68, -32954.67, -21993.85, -17714.61, -22219.67, -22338.24, -25407.43, -24609.38, 0.000, 0.000, 0.000, 10:34:47.038, 1583739287038
137, -28559.05, -32980.36, -22150.53, -17909.42, -22919.05, -22546.12, -25649.16, -24957.44, 0.000, 0.000, 0.000, 10:34:47.039, 1583739287039
138, -28398.34, -32960.71, -22118.41, -17859.45, -22751.66, -22476.06, -25523.84, -24890.99, 0.000, 0.000, 0.000, 10:34:47.039, 1583739287039
139, -27663.79, -32885.14, -21926.37, -17693.69, -21886.07, -22338.91, -25132.68, -24456.23, 0.006, -0.018, 0.974, 10:34:47.039, 1583739287039
140, -27499.15, -32900.56, -21856.90, -17596.16, -21570.91, -22221.70, -25085.90, -24298.69, 0.000, 0.000, 0.000, 10:34:47.039, 1583739287039
141, -28069.34, -32966.59, -21985.78, -17717.06, -22216.87, -22339.54, -25403.88, -24611.66, 0.000, 0.000, 0.000, 10:34:47.039, 1583739287039
142, -28558.87, -32983.60, -22139.29, -17914.23, -22916.35, -22546.67, -25639.01, -24961.91, 0.000, 0.000, 0.000, 10:34:47.040, 1583739287040
143, -28401.67, -32956.51, -22113.85, -17872.88, -22757.85, -22483.39, -25518.45, -24901.65, 0.000, 0.000, 0.000, 10:34:47.040, 1583739287040
144, -27670.83, -32884.69, -21924.49, -17700.39, -21891.90, -22343.29, -25129.98, -24465.08, 0.000, 0.000, 0.000, 10:34:47.040, 1583739287040
145, -27502.19, -32898.10, -21853.81, -17598.82, -21571.31, -22223.18, -25083.78, -24302.92, 0.000, 0.000, 0.000, 10:34:47.040, 1583739287040
146, -28073.88, -32964.51, -21990.52, -17725.58, -22218.88, -22343.90, -25407.76, -24616.67, 0.000, 0.000, 0.000, 10:34:47.040, 1583739287040
147, -28559.22, -32985.83, -22147.65, -17913.22, -22919.50, -22547.93, -25646.12, -24961.94, 0.000, 0.000, 0.000, 10:34:47.041, 1583739287041
148, -28399.88, -32960.24, -22118.44, -17856.74, -22758.46, -22473.67, -25519.30, -24893.05, 0.000, 0.000, 0.000, 10:34:47.041, 1583739287041
149, -27668.49, -32882.95, -21930.01, -17693.13, -21893.82, -22338.15, -25130.63, -24459.24, 0.006, -0.018, 0.972, 10:34:47.041, 1583739287041
150, -27493.67, -32896.83, -21857.41, -17595.43, -21569.79, -22217.92, -25077.63, -24294.20, 0.000, 0.000, 0.000, 10:34:47.041, 1583739287041
151, -28060.13, -32962.36, -21982.65, -17711.14, -22206.81, -22331.31, -25391.18, -24600.37, 0.000, 0.000, 0.000, 10:34:47.041, 1583739287041
152, -28551.94, -32982.66, -22138.44, -17903.54, -22909.53, -22539.50, -25630.03, -24948.66, 0.000, 0.000, 0.000, 10:34:47.041, 1583739287041
153, -28403.52, -32954.38, -22117.59, -17857.88, -22760.78, -22472.69, -25511.43, -24889.98, 0.000, 0.000, 0.000, 10:34:47.042, 1583739287042
154, -27674.50, -32876.87, -21934.39, -17691.70, -21898.96, -22335.56, -25124.97, -24456.32, 0.000, 0.000, 0.000, 10:34:47.042, 1583739287042
155, -27489.83, -32885.25, -21854.13, -17585.26, -21563.13, -22212.51, -25069.67, -24285.19, 0.000, 0.000, 0.000, 10:34:47.042, 1583739287042
156, -28055.39, -32955.55, -21980.53, -17705.13, -22199.62, -22327.65, -25389.37, -24593.98, 0.000, 0.000, 0.000, 10:34:47.042, 1583739287042
157, -28545.86, -32980.15, -22133.84, -17898.03, -22906.07, -22533.93, -25629.94, -24942.45, 0.000, 0.000, 0.000, 10:34:47.042, 1583739287042
158, -28405.85, -32957.94, -22119.67, -17860.05, -22767.08, -22475.55, -25520.77, -24893.58, 0.000, 0.000, 0.000, 10:34:47.042, 1583739287042
159, -27677.87, -32877.14, -21939.67, -17702.85, -21911.66, -22344.75, -25138.00, -24464.90, 0.000, 0.000, 0.000, 10:34:47.043, 1583739287043
160, -27489.43, -32874.12, -21861.62, -17601.66, -21574.42, -22223.58, -25078.54, -24292.57, 0.002, -0.014, 0.972, 10:34:47.043, 1583739287043
161, -28058.63, -32953.22, -21993.02, -17722.23, -22209.23, -22339.58, -25400.46, -24604.20, 0.000, 0.000, 0.000, 10:34:47.043, 1583739287043
162, -28551.96, -32987.87, -22148.07, -17918.30, -22915.23, -22550.38, -25642.28, -24957.31, 0.000, 0.000, 0.000, 10:34:47.043, 1583739287043
163, -28409.92, -32959.39, -22125.37, -17868.34, -22775.04, -22482.95, -25529.00, -24902.84, 0.000, 0.000, 0.000, 10:34:47.043, 1583739287043
164, -27682.10, -32878.48, -21933.59, -17693.33, -21910.50, -22340.01, -25137.35, -24466.78, 0.000, 0.000, 0.000, 10:34:47.043, 1583739287043
165, -27488.11, -32884.31, -21855.45, -17592.10, -21564.16, -22220.07, -25076.06, -24294.07, 0.000, 0.000, 0.000, 10:34:47.044, 1583739287044
166, -28049.70, -32954.05, -21990.74, -17715.70, -22199.69, -22337.44, -25398.62, -24604.13, 0.000, 0.000, 0.000, 10:34:47.044, 1583739287044
167, -28545.26, -32982.66, -22144.45, -17909.20, -22906.56, -22545.38, -25637.81, -24954.29, 0.000, 0.000, 0.000, 10:34:47.044, 1583739287044
168, -28415.35, -32961.87, -22117.99, -17857.81, -22768.63, -22474.99, -25525.18, -24901.43, 0.000, 0.000, 0.000, 10:34:47.044, 1583739287044
169, -27690.55, -32883.62, -21939.49, -17695.34, -21914.99, -22341.15, -25142.61, -24473.08, 0.000, 0.000, 0.000, 10:34:47.045, 1583739287045
170, -27495.08, -32891.73, -21864.83, -17602.58, -21571.51, -22226.55, -25081.56, -24301.80, 0.004, -0.014, 0.968, 10:34:47.045, 1583739287045
171, -28053.27, -32957.02, -21983.19, -17709.94, -22192.46, -22331.20, -25394.17, -24602.45, 0.000, 0.000, 0.000, 10:34:47.045, 1583739287045
172, -28554.22, -32982.34, -22133.86, -17895.97, -22900.08, -22537.40, -25636.27, -24952.68, 0.000, 0.000, 0.000, 10:34:47.045, 1583739287045
173, -28423.64, -32955.50, -22118.93, -17859.02, -22776.94, -22478.39, -25530.41, -24907.98, 0.000, 0.000, 0.000, 10:34:47.046, 1583739287046
174, -27697.07, -32886.50, -21945.59, -17706.00, -21927.96, -22349.58, -25149.65, -24482.80, 0.000, 0.000, 0.000, 10:34:47.046, 1583739287046
175, -27489.56, -32893.61, -21863.78, -17603.27, -21571.13, -22228.34, -25078.52, -24301.33, 0.000, 0.000, 0.000, 10:34:47.046, 1583739287046
176, -28045.45, -32961.38, -21978.13, -17714.32, -22185.02, -22333.39, -25384.14, -24600.11, 0.000, 0.000, 0.000, 10:34:47.046, 1583739287046
177, -28545.93, -32985.38, -22130.62, -17907.86, -22896.86, -22543.99, -25625.96, -24952.95, 0.000, 0.000, 0.000, 10:34:47.046, 1583739287046
178, -28422.97, -32968.31, -22117.63, -17871.38, -22781.61, -22486.23, -25525.38, -24912.40, 0.000, 0.000, 0.000, 10:34:47.047, 1583739287047
179, -27696.31, -32892.74, -21939.31, -17708.10, -21927.73, -22352.50, -25142.69, -24483.45, 0.000, 0.000, 0.000, 10:34:47.047, 1583739287047
180, -27481.74, -32889.12, -21855.67, -17599.47, -21561.90, -22228.83, -25073.45, -24298.27, 0.004, -0.014, 0.966, 10:34:47.047, 1583739287047
181, -28035.77, -32950.67, -21972.79, -17704.41, -22172.84, -22328.50, -25385.01, -24594.56, 0.000, 0.000, 0.000, 10:34:47.047, 1583739287047
182, -28545.46, -32983.77, -22123.29, -17888.82, -22885.55, -22532.66, -25628.62, -24944.70, 0.000, 0.000, 0.000, 10:34:47.048, 1583739287048
183, -28421.61, -32958.74, -22108.82, -17851.20, -22770.53, -22471.37, -25525.33, -24902.59, 0.000, 0.000, 0.000, 10:34:47.048, 1583739287048
184, -27696.54, -32878.21, -21936.43, -17701.35, -21923.53, -22345.57, -25145.20, -24482.20, 0.000, 0.000, 0.000, 10:34:47.048, 1583739287048
185, -27481.89, -32885.92, -21864.95, -17606.45, -21565.30, -22229.75, -25078.57, -24302.20, 0.000, 0.000, 0.000, 10:34:47.049, 1583739287049
186, -28038.05, -32961.13, -21993.38, -17721.51, -22182.96, -22338.27, -25395.45, -24603.50, 0.000, 0.000, 0.000, 10:34:47.049, 1583739287049
187, -28547.89, -32990.73, -22146.42, -17914.59, -22901.11, -22551.99, -25642.72, -24959.12, 0.000, 0.000, 0.000, 10:34:47.049, 1583739287049
188, -28432.63, -32965.45, -22125.83, -17864.61, -22790.82, -22486.90, -25539.24, -24917.50, 0.000, 0.000, 0.000, 10:34:47.049, 1583739287049
189, -27705.66, -32886.12, -21938.77, -17696.84, -21933.92, -22348.97, -25148.97, -24486.69, 0.000, 0.000, 0.000, 10:34:47.049, 1583739287049
190, -27490.97, -32897.92, -21856.96, -17594.89, -21563.20, -22229.79, -25076.78, -24301.98, 0.004, -0.016, 0.968, 10:34:47.050, 1583739287050
191, -28046.23, -32965.22, -21980.86, -17706.36, -22176.73, -22334.33, -25395.20, -24601.83, 0.000, 0.000, 0.000, 10:34:47.050, 1583739287050
192, -28546.51, -32989.61, -22137.41, -17902.54, -22898.78, -22548.06, -25643.89, -24957.38, 0.000, 0.000, 0.000, 10:34:47.050, 1583739287050
193, -28434.70, -32969.29, -22132.52, -17875.90, -22803.83, -22495.82, -25548.38, -24926.40, 0.000, 0.000, 0.000, 10:34:47.050, 1583739287050
194, -27711.20, -32892.45, -21957.55, -17718.79, -21952.90, -22360.88, -25162.56, -24500.24, 0.000, 0.000, 0.000, 10:34:47.050, 1583739287050
195, -27490.77, -32900.22, -21867.31, -17605.78, -21570.35, -22234.38, -25081.05, -24307.30, 0.000, 0.000, 0.000, 10:34:47.050, 1583739287050
196, -28043.86, -32968.73, -21968.05, -17695.18, -22161.22, -22320.61, -25379.64, -24591.70, 0.000, 0.000, 0.000, 10:34:47.050, 1583739287050
197, -28558.55, -32997.50, -22124.16, -17892.66, -22881.55, -22533.51, -25627.10, -24946.20, 0.000, 0.000, 0.000, 10:34:47.050, 1583739287050
198, -28456.47, -32986.17, -22117.52, -17870.26, -22790.53, -22485.12, -25535.17, -24918.15, 0.000, 0.000, 0.000, 10:34:47.050, 1583739287050
199, -27736.19, -32916.09, -21932.18, -17708.82, -21937.92, -22348.53, -25145.80, -24490.56, 0.000, 0.000, 0.000, 10:34:47.051, 1583739287051
200, -27506.73, -32915.67, -21843.85, -17593.10, -21549.65, -22218.48, -25060.75, -24290.78, 0.004, -0.018, 0.964, 10:34:47.051, 1583739287051
201, -28058.50, -32991.87, -21960.95, -17688.81, -22147.90, -22309.46, -25369.47, -24576.99, 0.000, 0.000, 0.000, 10:34:47.051, 1583739287051
202, -28577.29, -33024.81, -22123.40, -17888.75, -22875.82, -22528.43, -25623.28, -24936.95, 0.000, 0.000, 0.000, 10:34:47.051, 1583739287051
203, -28487.43, -33019.98, -22121.05, -17868.36, -22794.04, -22482.30, -25533.31, -24914.21, 0.000, 0.000, 0.000, 10:34:47.052, 1583739287052
204, -27770.46, -32953.04, -21938.73, -17703.10, -21942.66, -22344.75, -25145.11, -24487.95, 0.000, 0.000, 0.000, 10:34:47.052, 1583739287052
205, -27543.25, -32963.14, -21848.54, -17588.68, -21548.69, -22217.61, -25057.65, -24288.90, 0.000, 0.000, 0.000, 10:34:47.052, 1583739287052
206, -28098.09, -33038.20, -21971.41, -17696.57, -22150.85, -22316.52, -25372.00, -24582.49, 0.000, 0.000, 0.000, 10:34:47.052, 1583739287052
207, -28625.48, -33084.40, -22140.45, -17908.28, -22890.80, -22546.14, -25635.17, -24953.89, 0.000, 0.000, 0.000, 10:34:47.052, 1583739287052
208, -28549.30, -33089.01, -22137.14, -17883.54, -22812.79, -22500.96, -25550.23, -24935.54, 0.000, 0.000, 0.000, 10:34:47.053, 1583739287053
209, -27845.33, -33032.21, -21954.31, -17717.15, -21964.30, -22364.80, -25166.61, -24511.62, 0.000, 0.000, 0.000, 10:34:47.053, 1583739287053
210, -27610.64, -33049.47, -21864.30, -17605.06, -21568.58, -22240.23, -25081.63, -24311.81, 0.002, -0.012, 0.974, 10:34:47.053, 1583739287053
211, -28160.60, -33124.26, -21985.38, -17706.52, -22162.63, -22334.02, -25392.12, -24600.08, 0.000, 0.000, 0.000, 10:34:47.053, 1583739287053
212, -28686.54, -33154.54, -22142.51, -17906.94, -22891.90, -22549.76, -25643.13, -24958.52, 0.000, 0.000, 0.000, 10:34:47.055, 1583739287055
213, -28606.03, -33140.66, -22137.48, -17885.46, -22820.93, -22502.44, -25557.34, -24940.84, 0.000, 0.000, 0.000, 10:34:47.055, 1583739287055
214, -27896.36, -33080.00, -21946.98, -17711.95, -21967.52, -22359.07, -25165.92, -24510.34, 0.000, 0.000, 0.000, 10:34:47.055, 1583739287055
215, -27659.03, -33102.69, -21858.75, -17602.02, -21564.04, -22234.55, -25077.85, -24307.74, 0.000, 0.000, 0.000, 10:34:47.055, 1583739287055
216, -28205.17, -33182.86, -21984.59, -17715.30, -22157.98, -22334.58, -25390.82, -24600.71, 0.000, 0.000, 0.000, 10:34:47.056, 1583739287056
217, -28728.61, -33217.57, -22144.81, -17911.37, -22890.55, -22552.19, -25646.41, -24963.14, 0.000, 0.000, 0.000, 10:34:47.056, 1583739287056
218, -28645.35, -33202.58, -22139.65, -17877.19, -22821.64, -22498.53, -25561.95, -24942.02, 0.000, 0.000, 0.000, 10:34:47.056, 1583739287056
219, -27930.72, -33133.13, -21962.09, -17720.62, -21980.68, -22366.70, -25179.17, -24519.93, 0.000, 0.000, 0.000, 10:34:47.056, 1583739287056
220, -27681.32, -33140.13, -21873.57, -17613.62, -21575.15, -22244.92, -25088.63, -24315.77, 0.004, -0.016, 0.972, 10:34:47.057, 1583739287057
221, -28221.45, -33208.25, -21990.96, -17716.26, -22161.93, -22335.56, -25397.19, -24601.54, 0.000, 0.000, 0.000, 10:34:47.057, 1583739287057
222, -28741.91, -33239.79, -22150.87, -17915.19, -22901.51, -22552.89, -25654.75, -24964.26, 0.000, 0.000, 0.000, 10:34:47.057, 1583739287057
223, -28663.14, -33214.22, -22147.45, -17891.72, -22838.97, -22504.54, -25570.55, -24947.50, 0.000, 0.000, 0.000, 10:34:47.057, 1583739287057
224, -27949.65, -33137.04, -21971.14, -17738.99, -21996.66, -22375.64, -25188.09, -24530.12, 0.000, 0.000, 0.000, 10:34:47.058, 1583739287058
225, -27693.01, -33147.34, -21879.43, -17624.93, -21583.38, -22249.84, -25088.80, -24322.09, 0.000, 0.000, 0.000, 10:34:47.058, 1583739287058
226, -28233.25, -33220.59, -21995.10, -17719.08, -22158.98, -22338.91, -25393.62, -24605.67, 0.000, 0.000, 0.000, 10:34:47.058, 1583739287058
227, -28758.47, -33253.85, -22157.08, -17914.97, -22899.74, -22558.70, -25653.70, -24970.05, 0.000, 0.000, 0.000, 10:34:47.059, 1583739287059
228, -28673.49, -33234.29, -22152.08, -17888.21, -22839.62, -22505.61, -25572.21, -24952.68, 0.000, 0.000, 0.000, 10:34:47.059, 1583739287059
229, -27956.24, -33156.29, -21969.39, -17727.66, -21993.78, -22370.45, -25185.19, -24529.38, 0.000, 0.000, 0.000, 10:34:47.059, 1583739287059
230, -27689.05, -33147.95, -21865.62, -17604.26, -21567.02, -22238.42, -25080.15, -24312.13, 0.008, -0.016, 0.970, 10:34:47.059, 1583739287059
231, -28220.37, -33208.43, -21981.15, -17698.42, -22145.15, -22323.96, -25385.59, -24591.30, 0.000, 0.000, 0.000, 10:34:47.060, 1583739287060
232, -28742.71, -33237.87, -22143.34, -17907.23, -22884.36, -22549.06, -25646.41, -24957.78, 0.000, 0.000, 0.000, 10:34:47.060, 1583739287060
233, -28668.37, -33215.05, -22149.55, -17892.77, -22837.89, -22507.92, -25572.29, -24951.72, 0.000, 0.000, 0.000, 10:34:47.060, 1583739287060
234, -27951.79, -33140.50, -21977.58, -17741.94, -22001.11, -22381.67, -25192.72, -24538.62, 0.000, 0.000, 0.000, 10:34:47.060, 1583739287060
235, -27679.46, -33141.85, -21877.87, -17623.05, -21574.13, -22252.19, -25089.63, -24323.66, 0.000, 0.000, 0.000, 10:34:47.060, 1583739287060
236, -28200.05, -33197.91, -21985.33, -17708.04, -22141.06, -22327.63, -25388.09, -24596.11, 0.000, 0.000, 0.000, 10:34:47.061, 1583739287061
237, -28719.67, -33221.66, -22151.49, -17915.08, -22885.26, -22551.81, -25650.21, -24963.28, 0.000, 0.000, 0.000, 10:34:47.061, 1583739287061
238, -28648.54, -33201.55, -22156.52, -17900.42, -22841.94, -22512.10, -25578.40, -24959.77, 0.000, 0.000, 0.000, 10:34:47.061, 1583739287061
239, -27926.60, -33118.78, -21968.01, -17730.70, -21993.60, -22369.87, -25187.38, -24534.55, 0.000, 0.000, 0.000, 10:34:47.061, 1583739287061
240, -27644.35, -33104.92, -21861.17, -17600.19, -21555.02, -22232.65, -25074.81, -24310.16, -0.002, -0.018, 0.968, 10:34:47.062, 1583739287062
241, -28170.01, -33167.44, -21977.40, -17687.63, -22128.49, -22311.62, -25379.78, -24586.34, 0.000, 0.000, 0.000, 10:34:47.514, 1583739287514
242, -28689.40, -33191.20, -22138.66, -17893.42, -22874.10, -22534.22, -25639.95, -24952.17, 0.000, 0.000, 0.000, 10:34:47.514, 1583739287514
243, -28628.49, -33172.45, -22138.26, -17877.57, -22834.88, -22492.52, -25567.29, -24949.66, 0.000, 0.000, 0.000, 10:34:47.515, 1583739287515
244, -27912.21, -33088.67, -21961.08, -17718.47, -21994.92, -22358.99, -25181.92, -24530.73, 0.000, 0.000, 0.000, 10:34:47.515, 1583739287515
245, -27630.64, -33089.79, -21864.95, -17606.74, -21559.08, -22235.11, -25074.63, -24311.54, 0.000, 0.000, 0.000, 10:34:47.515, 1583739287515
246, -28152.42, -33152.33, -21976.57, -17700.73, -22124.92, -22317.57, -25379.73, -24586.85, 0.000, 0.000, 0.000, 10:34:47.515, 1583739287515
247, -28675.25, -33170.41, -22140.72, -17908.06, -22872.52, -22544.35, -25644.20, -24956.91, 0.000, 0.000, 0.000, 10:34:47.515, 1583739287515
248, -28615.64, -33151.44, -22148.05, -17894.85, -22841.96, -22505.52, -25575.56, -24959.43, 0.000, 0.000, 0.000, 10:34:47.515, 1583739287515
249, -27896.63, -33068.15, -21964.14, -17725.83, -21999.23, -22363.50, -25183.87, -24535.62, 0.000, 0.000, 0.000, 10:34:47.516, 1583739287516
250, -27607.60, -33054.27, -21862.42, -17602.98, -21554.46, -22232.94, -25068.71, -24309.33, 0.000, 0.000, 0.000, 10:34:47.516, 1583739287516
251, -28128.91, -33119.52, -21972.70, -17691.34, -22111.62, -22312.03, -25369.86, -24581.44, 0.004, -0.022, 0.964, 10:34:47.516, 1583739287516
252, -28656.52, -33148.02, -22135.07, -17898.87, -22863.26, -22538.04, -25636.24, -24951.77, 0.000, 0.000, 0.000, 10:34:47.516, 1583739287516
253, -28601.94, -33129.44, -22141.50, -17886.20, -22838.77, -22500.63, -25570.71, -24955.95, 0.000, 0.000, 0.000, 10:34:47.516, 1583739287516
254, -27889.19, -33051.61, -21965.60, -17726.54, -22001.78, -22364.33, -25186.32, -24537.95, 0.000, 0.000, 0.000, 10:34:47.516, 1583739287516
255, -27599.69, -33047.57, -21866.38, -17611.97, -21554.37, -22236.65, -25071.86, -24311.97, 0.000, 0.000, 0.000, 10:34:47.517, 1583739287517
0, -28116.86, -33108.39, -21977.80, -17700.14, -22113.23, -22311.80, -25371.71, -24580.62, 0.000, 0.000, 0.000, 10:34:47.517, 1583739287517
1, -28639.51, -33127.68, -22137.10, -17900.24, -22863.31, -22531.83, -25635.39, -24944.26, 0.000, 0.000, 0.000, 10:34:47.517, 1583739287517
2, -28590.09, -33107.56, -22143.92, -17885.60, -22841.04, -22492.67, -25572.65, -24948.55, 0.000, 0.000, 0.000, 10:34:47.517, 1583739287517
3, -27874.68, -33022.71, -21966.22, -17724.98, -22007.44, -22356.93, -25190.10, -24530.39, 0.000, 0.000, 0.000, 10:34:47.517, 1583739287517
4, -27572.84, -33009.43, -21864.19, -17605.96, -21552.74, -22227.22, -25073.74, -24299.52, 0.000, 0.000, 0.000, 10:34:47.518, 1583739287518
5, -28087.34, -33071.75, -21973.24, -17690.38, -22105.07, -22300.76, -25372.45, -24566.58, -0.002, -0.028, 0.966, 10:34:47.518, 1583739287518
6, -28618.61, -33097.77, -22135.13, -17894.02, -22856.27, -22525.71, -25637.14, -24935.87, 0.000, 0.000, 0.000, 10:34:47.518, 1583739287518
7, -28568.03, -33077.70, -22142.69, -17883.45, -22842.61, -22488.02, -25570.60, -24944.93, 0.000, 0.000, 0.000, 10:34:47.519, 1583739287519
8, -27857.00, -32998.82, -21970.24, -17733.34, -22014.19, -22362.05, -25190.46, -24536.56, 0.000, 0.000, 0.000, 10:34:47.519, 1583739287519
9, -27551.79, -32982.86, -21868.54, -17615.77, -21557.99, -22235.31, -25073.31, -24306.43, 0.000, 0.000, 0.000, 10:34:47.519, 1583739287519
10, -28061.07, -33043.23, -21965.30, -17686.26, -22097.02, -22296.58, -25365.05, -24564.83, 0.000, 0.000, 0.000, 10:34:47.519, 1583739287519
11, -28593.18, -33073.52, -22123.49, -17887.97, -22848.87, -22522.13, -25629.25, -24934.35, 0.000, 0.000, 0.000, 10:34:47.519, 1583739287519
12, -28553.64, -33052.35, -22136.41, -17883.83, -22842.86, -22493.54, -25573.70, -24950.76, 0.000, 0.000, 0.000, 10:34:47.520, 1583739287520
13, -27837.29, -32977.65, -21963.07, -17726.47, -22012.13, -22360.62, -25190.88, -24535.20, 0.000, 0.000, 0.000, 10:34:47.520, 1583739287520
14, -27530.60, -32960.75, -21867.96, -17619.68, -21552.29, -22239.72, -25069.54, -24304.53, 0.000, 0.000, 0.000, 10:34:47.520, 1583739287520
15, -28036.89, -33018.24, -21978.07, -17705.02, -22096.02, -22309.41, -25364.78, -24567.00, 0.000, -0.028, 0.962, 10:34:47.520, 1583739287520
16, -28568.12, -33050.03, -22137.75, -17897.64, -22847.68, -22526.62, -25629.34, -24931.02, 0.000, 0.000, 0.000, 10:34:47.520, 1583739287520
17, -28532.38, -33039.30, -22132.34, -17881.30, -22835.97, -22486.95, -25566.73, -24942.85, 0.000, 0.000, 0.000, 10:34:47.524, 1583739287524
18, -27820.99, -32959.01, -21944.09, -17721.31, -22001.96, -22350.49, -25178.46, -24528.04, 0.000, 0.000, 0.000, 10:34:47.524, 1583739287524
19, -27503.06, -32940.75, -21839.84, -17590.40, -21530.14, -22214.50, -25047.28, -24287.76, 0.000, 0.000, 0.000, 10:34:47.526, 1583739287526
20, -28015.54, -33008.96, -21941.88, -17656.34, -22062.31, -22272.37, -25336.75, -24542.64, 0.000, 0.000, 0.000, 10:34:47.526, 1583739287526
21, -28552.27, -33041.93, -22104.69, -17866.78, -22823.05, -22503.20, -25609.18, -24917.86, 0.000, 0.000, 0.000, 10:34:47.527, 1583739287527
22, -28519.57, -33022.40, -22125.23, -17872.25, -22833.78, -22481.41, -25559.60, -24943.43, 0.000, 0.000, 0.000, 10:34:47.527, 1583739287527
23, -27812.41, -32943.07, -21958.04, -17719.48, -22012.02, -22350.78, -25180.78, -24534.41, 0.000, 0.000, 0.000, 10:34:47.527, 1583739287527
24, -27495.82, -32934.78, -21847.27, -17596.16, -21536.78, -22219.91, -25050.00, -24293.06, 0.000, 0.000, 0.000, 10:34:47.527, 1583739287527
25, -28002.46, -32995.78, -21947.54, -17674.60, -22069.15, -22285.43, -25342.70, -24552.18, 0.004, -0.016, 0.966, 10:34:47.528, 1583739287528
26, -28541.70, -33024.03, -22115.53, -17880.75, -22831.90, -22513.15, -25615.95, -24925.08, 0.000, 0.000, 0.000, 10:34:47.528, 1583739287528
27, -28509.45, -33008.34, -22128.49, -17874.27, -22840.06, -22480.82, -25561.95, -24944.48, 0.000, 0.000, 0.000, 10:34:47.528, 1583739287528
28, -27801.75, -32929.97, -21957.41, -17721.54, -22019.31, -22350.76, -25184.13, -24535.91, 0.000, 0.000, 0.000, 10:34:47.528, 1583739287528
29, -27474.47, -32910.42, -21848.07, -17594.00, -21535.77, -22217.34, -25050.81, -24289.91, 0.000, 0.000, 0.000, 10:34:47.528, 1583739287528
30, -27981.95, -32974.01, -21956.03, -17673.12, -22069.80, -22284.73, -25347.39, -24550.69, 0.000, 0.000, 0.000, 10:34:47.529, 1583739287529
31, -28523.08, -33007.47, -22121.56, -17882.71, -22834.23, -22515.13, -25620.20, -24925.48, 0.000, 0.000, 0.000, 10:34:47.529, 1583739287529
32, -28499.23, -32994.01, -22135.63, -17875.52, -22848.87, -22486.73, -25569.77, -24950.54, 0.000, 0.000, 0.000, 10:34:47.529, 1583739287529
33, -27794.66, -32913.43, -21966.62, -17722.96, -22029.79, -22357.31, -25192.47, -24544.63, 0.000, 0.000, 0.000, 10:34:47.529, 1583739287529
34, -27461.13, -32897.34, -21866.62, -17613.35, -21551.55, -22235.85, -25064.49, -24305.62, 0.000, 0.000, 0.000, 10:34:47.529, 1583739287529
35, -27963.86, -32964.80, -21974.33, -17699.21, -22078.58, -22302.90, -25357.54, -24563.54, 0.006, -0.018, 0.968, 10:34:47.529, 1583739287529
36, -28516.51, -32997.19, -22137.08, -17898.07, -22837.83, -22527.38, -25627.50, -24933.39, 0.000, 0.000, 0.000, 10:34:47.530, 1583739287530
37, -28496.33, -32978.86, -22130.69, -17875.83, -22842.92, -22485.50, -25566.42, -24948.79, 0.000, 0.000, 0.000, 10:34:47.530, 1583739287530
38, -27788.45, -32898.77, -21950.31, -17715.75, -22017.94, -22348.41, -25180.98, -24536.83, 0.000, 0.000, 0.000, 10:34:47.530, 1583739287530
39, -27459.16, -32888.40, -21851.85, -17602.31, -21536.69, -22225.59, -25050.38, -24293.75, 0.000, 0.000, 0.000, 10:34:47.530, 1583739287530
40, -27962.93, -32956.11, -21956.27, -17682.82, -22058.29, -22289.88, -25341.27, -24548.96, 0.000, 0.000, 0.000, 10:34:47.530, 1583739287530
41, -28512.62, -32994.17, -22121.32, -17891.81, -22822.74, -22521.55, -25612.80, -24926.33, 0.000, 0.000, 0.000, 10:34:47.531, 1583739287531
42, -28497.96, -32980.49, -22139.76, -17889.20, -22848.89, -22494.26, -25567.20, -24954.85, 0.000, 0.000, 0.000, 10:34:47.531, 1583739287531
43, -27794.10, -32896.78, -21967.61, -17735.79, -22035.22, -22361.58, -25190.19, -24548.72, 0.000, 0.000, 0.000, 10:34:47.531, 1583739287531
44, -27458.27, -32886.99, -21854.46, -17617.38, -21542.77, -22234.38, -25049.26, -24298.94, 0.000, 0.000, 0.000, 10:34:47.531, 1583739287531
45, -27959.77, -32964.82, -21957.64, -17690.00, -22061.64, -22292.87, -25339.93, -24550.08, 0.010, -0.016, 0.970, 10:34:47.531, 1583739287531
46, -28502.45, -32991.98, -22115.13, -17879.70, -22819.88, -22511.60, -25608.62, -24916.32, 0.000, 0.000, 0.000, 10:34:47.532, 1583739287532
47, -28496.10, -32974.52, -22131.74, -17872.88, -22849.03, -22483.78, -25564.29, -24946.54, 0.000, 0.000, 0.000, 10:34:47.532, 1583739287532
48, -27799.76, -32898.77, -21965.86, -17726.14, -22037.23, -22356.37, -25187.98, -24545.50, 0.000, 0.000, 0.000, 10:34:47.532, 1583739287532
49, -27460.64, -32888.00, -21860.47, -17614.43, -21540.96, -22233.26, -25050.49, -24298.11, 0.000, 0.000, 0.000, 10:34:47.532, 1583739287532
50, -27951.62, -32951.70, -21955.85, -17686.53, -22051.07, -22288.35, -25336.42, -24544.20, 0.000, 0.000, 0.000, 10:34:47.532, 1583739287532
51, -28501.36, -32984.40, -22117.54, -17885.11, -22818.92, -22514.15, -25611.72, -24919.36, 0.000, 0.000, 0.000, 10:34:47.533, 1583739287533
52, -28496.66, -32972.64, -22142.02, -17884.46, -22861.39, -22491.76, -25574.51, -24955.88, 0.000, 0.000, 0.000, 10:34:47.533, 1583739287533
53, -27798.66, -32896.76, -21975.97, -17735.19, -22052.70, -22365.02, -25202.60, -24556.01, 0.000, 0.000, 0.000, 10:34:47.533, 1583739287533
54, -27443.31, -32868.21, -21863.74, -17610.80, -21548.62, -22234.33, -25056.15, -24299.18, 0.000, 0.000, 0.000, 10:34:47.533, 1583739287533
55, -27934.94, -32938.42, -21963.90, -17679.67, -22052.70, -22287.46, -25341.11, -24543.49, 0.008, -0.016, 0.968, 10:34:47.533, 1583739287533
56, -28488.91, -32982.10, -22125.77, -17888.93, -22819.50, -22518.00, -25616.89, -24920.65, 0.000, 0.000, 0.000, 10:34:47.533, 1583739287533
57, -28486.54, -32963.84, -22140.27, -17891.81, -22862.23, -22495.42, -25577.70, -24958.61, 0.000, 0.000, 0.000, 10:34:47.534, 1583739287534
58, -27790.59, -32885.45, -21968.12, -17732.49, -22052.14, -22360.01, -25199.09, -24552.99, 0.000, 0.000, 0.000, 10:34:47.534, 1583739287534
59, -27440.54, -32872.42, -21857.97, -17609.53, -21547.26, -22232.56, -25053.87, -24296.81, 0.000, 0.000, 0.000, 10:34:47.534, 1583739287534
60, -27930.27, -32939.96, -21961.79, -17685.55, -22054.60, -22291.82, -25344.02, -24544.76, 0.000, 0.000, 0.000, 10:34:47.535, 1583739287535
61, -28482.36, -32976.49, -22127.15, -17896.57, -22827.54, -22525.24, -25621.36, -24924.00, 0.000, 0.000, 0.000, 10:34:47.535, 1583739287535
62, -28483.50, -32956.77, -22135.65, -17889.08, -22867.46, -22496.16, -25573.90, -24958.83, 0.000, 0.000, 0.000, 10:34:47.535, 1583739287535
63, -27791.58, -32882.79, -21968.66, -17730.23, -22059.07, -22360.68, -25196.81, -24555.11, 0.000, 0.000, 0.000, 10:34:47.535, 1583739287535
64, -27436.18, -32866.18, -21852.45, -17603.03, -21541.45, -22228.07, -25047.01, -24293.48, 0.000, 0.000, 0.000, 10:34:47.535, 1583739287535
65, -27925.62, -32928.79, -21953.84, -17676.18, -22042.42, -22283.97, -25334.88, -24538.33, 0.008, -0.022, 0.964, 10:34:47.536, 1583739287536
66, -28482.18, -32969.40, -22124.70, -17890.47, -22819.70, -22518.53, -25614.56, -24917.88, 0.000, 0.000, 0.000, 10:34:47.536, 1583739287536
67, -28488.37, -32953.67, -22150.85, -17896.84, -22877.75, -22499.24, -25582.04, -24961.47, 0.000, 0.000, 0.000, 10:34:47.536, 1583739287536
68, -27793.37, -32876.00, -21978.67, -17743.95, -22072.28, -22368.08, -25206.33, -24562.35, 0.000, 0.000, 0.000, 10:34:47.536, 1583739287536
69, -27433.97, -32867.77, -21864.19, -17627.14, -21556.92, -22244.41, -25052.82, -24305.53, 0.000, 0.000, 0.000, 10:34:47.536, 1583739287536
70, -27921.06, -32940.50, -21967.72, -17698.60, -22055.40, -22299.64, -25339.93, -24549.03, 0.000, 0.000, 0.000, 10:34:47.536, 1583739287536
71, -28481.40, -32973.89, -22137.61, -17911.99, -22831.41, -22535.97, -25622.52, -24930.89, 0.000, 0.000, 0.000, 10:34:47.536, 1583739287536
72, -28496.75, -32963.39, -22156.52, -17906.56, -22889.26, -22511.45, -25590.44, -24972.93, 0.000, 0.000, 0.000, 10:34:47.537, 1583739287537
73, -27804.59, -32884.71, -21977.93, -17736.31, -22077.73, -22368.15, -25207.58, -24564.61, 0.000, 0.000, 0.000, 10:34:47.537, 1583739287537
74, -27440.14, -32868.38, -21864.83, -17620.19, -21555.64, -22242.87, -25052.66, -24302.80, 0.000, 0.000, 0.000, 10:34:47.537, 1583739287537
75, -27917.55, -32934.64, -21960.16, -17688.68, -22043.65, -22292.60, -25331.05, -24541.63, 0.006, -0.018, 0.968, 10:34:47.537, 1583739287537
76, -28473.42, -32961.80, -22121.95, -17884.50, -22815.23, -22517.97, -25609.00, -24916.16, 0.000, 0.000, 0.000, 10:34:47.537, 1583739287537
77, -28492.35, -32949.00, -22151.23, -17893.35, -22885.26, -22503.00, -25583.02, -24967.39, 0.000, 0.000, 0.000, 10:34:47.537, 1583739287537
78, -27803.07, -32880.69, -21986.45, -17745.99, -22085.13, -22373.65, -25209.12, -24572.59, 0.000, 0.000, 0.000, 10:34:47.538, 1583739287538
79, -27435.51, -32869.02, -21857.86, -17617.58, -21550.99, -22241.55, -25049.20, -24304.79, 0.000, 0.000, 0.000, 10:34:47.538, 1583739287538
80, -27916.19, -32935.99, -21948.92, -17679.54, -22032.65, -22287.91, -25329.78, -24541.52, 0.000, 0.000, 0.000, 10:34:47.538, 1583739287538
81, -28473.01, -32974.48, -22117.23, -17885.75, -22806.04, -22518.15, -25608.93, -24919.00, 0.000, 0.000, 0.000, 10:34:47.538, 1583739287538
82, -28502.41, -32968.22, -22145.53, -17899.21, -22884.54, -22505.72, -25583.72, -24972.96, 0.000, 0.000, 0.000, 10:34:47.538, 1583739287538
83, -27815.25, -32889.70, -21976.28, -17736.09, -22087.30, -22369.20, -25210.67, -24573.51, 0.000, 0.000, 0.000, 10:34:47.538, 1583739287538
84, -27436.38, -32871.41, -21856.41, -17603.59, -21550.57, -22235.34, -25047.16, -24299.99, 0.000, 0.000, 0.000, 10:34:47.539, 1583739287539
85, -27910.60, -32939.70, -21955.98, -17671.51, -22030.82, -22284.26, -25328.26, -24536.49, 0.000, 0.000, 0.000, 10:34:47.540, 1583739287540
86, -28466.09, -32966.96, -22123.24, -17887.81, -22808.86, -22520.63, -25610.72, -24919.04, 0.004, -0.022, 0.970, 10:34:47.540, 1583739287540
87, -28496.17, -32956.62, -22149.73, -17895.86, -22887.00, -22508.18, -25588.70, -24975.28, 0.000, 0.000, 0.000, 10:34:47.541, 1583739287541
88, -27813.21, -32876.93, -21981.08, -17735.28, -22091.61, -22373.38, -25215.05, -24578.78, 0.000, 0.000, 0.000, 10:34:47.541, 1583739287541
89, -27432.43, -32860.26, -21862.42, -17616.77, -21554.03, -22246.89, -25052.66, -24309.04, 0.000, 0.000, 0.000, 10:34:47.541, 1583739287541
90, -27907.76, -32931.67, -21958.29, -17681.30, -22026.75, -22290.14, -25332.53, -24539.91, 0.000, 0.000, 0.000, 10:34:47.541, 1583739287541
91, -28472.14, -32964.60, -22126.17, -17885.84, -22808.95, -22520.63, -25618.27, -24919.31, 0.000, 0.000, 0.000, 10:34:47.541, 1583739287541
92, -28505.00, -32962.09, -22154.74, -17897.73, -22895.63, -22509.03, -25598.36, -24979.62, 0.000, 0.000, 0.000, 10:34:47.541, 1583739287541
93, -27823.38, -32885.52, -21983.63, -17743.06, -22100.00, -22374.74, -25224.59, -24584.50, 0.000, 0.000, 0.000, 10:34:47.541, 1583739287541
94, -27441.71, -32867.79, -21868.61, -17623.12, -21559.89, -22250.96, -25059.43, -24313.67, 0.000, 0.000, 0.000, 10:34:47.541, 1583739287541
95, -27905.86, -32931.05, -21961.08, -17679.65, -22025.59, -22290.19, -25331.43, -24540.14, 0.000, 0.000, 0.000, 10:34:47.542, 1583739287542
96, -28469.59, -32970.30, -22135.76, -17892.24, -22807.03, -22527.85, -25619.28, -24926.42, 0.000, -0.020, 0.972, 10:34:47.542, 1583739287542
97, -28505.67, -32963.05, -22170.47, -17912.58, -22901.42, -22520.10, -25603.50, -24989.63, 0.000, 0.000, 0.000, 10:34:47.543, 1583739287543
98, -27818.69, -32880.58, -21986.31, -17745.54, -22099.59, -22375.17, -25221.28, -24585.40, 0.000, 0.000, 0.000, 10:34:47.543, 1583739287543
99, -27432.74, -32865.63, -21862.89, -17617.73, -21549.29, -22246.15, -25051.41, -24307.95, 0.000, 0.000, 0.000, 10:34:47.544, 1583739287544
100, -27900.83, -32930.98, -21963.72, -17686.94, -22016.02, -22290.14, -25331.43, -24537.48, 0.000, 0.000, 0.000, 10:34:47.545, 1583739287545
101, -28461.41, -32963.82, -22135.47, -17898.67, -22802.56, -22523.43, -25617.80, -24918.82, 0.000, 0.000, 0.000, 10:34:47.546, 1583739287546
102, -28502.88, -32954.72, -22152.90, -17900.97, -22893.93, -22505.72, -25595.61, -24975.32, 0.000, 0.000, 0.000, 10:34:47.547, 1583739287547
103, -27821.26, -32875.23, -21984.30, -17744.54, -22103.01, -22367.99, -25219.88, -24579.01, 0.000, 0.000, 0.000, 10:34:47.549, 1583739287549
104, -27424.47, -32858.89, -21865.86, -17621.98, -21551.51, -22241.33, -25046.43, -24300.68, 0.000, 0.000, 0.000, 10:34:47.549, 1583739287549
105, -27885.12, -32923.05, -21948.38, -17676.34, -22005.38, -22276.26, -25314.29, -24522.23, 0.000, 0.000, 0.000, 10:34:47.996, 1583739287996
106, -28450.71, -32955.50, -22110.10, -17876.37, -22785.14, -22503.47, -25597.06, -24901.27, 0.000, -0.020, 0.968, 10:34:47.996, 1583739287996
107, -28498.76, -32950.88, -22141.35, -17886.78, -22888.16, -22494.66, -25584.97, -24967.77, 0.000, 0.000, 0.000, 10:34:47.997, 1583739287997
108, -27823.09, -32873.07, -21974.24, -17731.79, -22098.48, -22361.24, -25215.25, -24577.22, 0.000, 0.000, 0.000, 10:34:47.997, 1583739287997
109, -27424.34, -32857.06, -21855.42, -17607.83, -21542.48, -22233.70, -25042.76, -24297.62, 0.000, 0.000, 0.000, 10:34:47.997, 1583739287997
110, -27880.45, -32922.04, -21938.44, -17655.64, -21990.90, -22263.10, -25310.27, -24514.07, 0.000, 0.000, 0.000, 10:34:47.997, 1583739287997
111, -28449.30, -32955.95, -22104.38, -17864.88, -22774.71, -22497.68, -25597.80, -24897.88, 0.000, 0.000, 0.000, 10:34:47.997, 1583739287997
112, -28504.66, -32960.26, -22143.29, -17892.84, -22886.24, -22499.44, -25589.97, -24975.88, 0.000, 0.000, 0.000, 10:34:47.997, 1583739287997
113, -27836.93, -32892.00, -21984.04, -17749.88, -22104.91, -22372.84, -25223.61, -24592.15, 0.000, 0.000, 0.000, 10:34:47.998, 1583739287998
114, -27433.46, -32867.37, -21862.93, -17626.50, -21546.10, -22247.21, -25047.90, -24308.44, 0.000, 0.000, 0.000, 10:34:47.998, 1583739287998
115, -27892.56, -32935.12, -21956.90, -17680.77, -22001.20, -22284.33, -25323.65, -24529.96, 0.000, 0.000, 0.000, 10:34:48.002, 1583739288002
116, -28459.38, -32965.63, -22118.82, -17874.04, -22783.04, -22508.34, -25608.53, -24905.90, -0.004, -0.024, 0.968, 10:34:48.003, 1583739288003
117, -28514.95, -32959.99, -22143.85, -17887.56, -22890.18, -22498.53, -25593.60, -24975.39, 0.000, 0.000, 0.000, 10:34:48.003, 1583739288003
118, -27841.18, -32881.56, -21980.35, -17735.26, -22107.19, -22362.96, -25222.91, -24587.07, 0.000, 0.000, 0.000, 10:34:48.003, 1583739288003
119, -27434.44, -32866.05, -21859.51, -17611.36, -21544.22, -22237.12, -25044.14, -24303.50, 0.000, 0.000, 0.000, 10:34:48.003, 1583739288003
120, -27884.47, -32931.36, -21944.83, -17664.14, -21988.35, -22269.49, -25310.71, -24518.99, 0.000, 0.000, 0.000, 10:34:48.003, 1583739288003
121, -28454.35, -32966.07, -22103.73, -17869.41, -22769.95, -22500.25, -25597.42, -24900.27, 0.000, 0.000, 0.000, 10:34:48.004, 1583739288004
122, -28518.32, -32963.32, -22140.68, -17890.71, -22890.62, -22499.18, -25592.77, -24978.81, 0.000, 0.000, 0.000, 10:34:48.004, 1583739288004
123, -27851.08, -32883.73, -21985.64, -17745.38, -22118.59, -22372.96, -25228.17, -24596.84, 0.000, 0.000, 0.000, 10:34:48.004, 1583739288004
124, -27440.25, -32862.23, -21868.03, -17623.46, -21549.38, -22248.84, -25050.16, -24311.41, 0.000, 0.000, 0.000, 10:34:48.004, 1583739288004
125, -27886.95, -32932.86, -21951.69, -17678.26, -21987.39, -22279.35, -25316.39, -24525.70, 0.000, 0.000, 0.000, 10:34:48.004, 1583739288004
126, -28455.63, -32966.70, -22116.78, -17885.40, -22774.57, -22511.60, -25605.64, -24907.35, -0.002, -0.022, 0.972, 10:34:48.005, 1583739288005
127, -28516.98, -32957.15, -22156.21, -17899.63, -22899.16, -22507.74, -25601.69, -24983.66, 0.000, 0.000, 0.000, 10:34:48.005, 1583739288005
128, -27850.74, -32877.98, -21998.63, -17750.73, -22128.43, -22375.82, -25236.10, -24600.24, 0.000, 0.000, 0.000, 10:34:48.005, 1583739288005
129, -27433.05, -32855.66, -21863.22, -17614.63, -21547.91, -22239.63, -25044.82, -24303.43, 0.000, 0.000, 0.000, 10:34:48.005, 1583739288005
130, -27874.61, -32921.73, -21933.32, -17653.59, -21972.48, -22259.34, -25301.50, -24507.10, 0.000, 0.000, 0.000, 10:34:48.005, 1583739288005
131, -28446.39, -32957.20, -22106.19, -17865.79, -22762.59, -22495.78, -25594.22, -24892.18, 0.000, 0.000, 0.000, 10:34:48.005, 1583739288005
132, -28512.71, -32952.95, -22143.54, -17889.64, -22895.23, -22495.94, -25593.84, -24974.50, 0.000, 0.000, 0.000, 10:34:48.005, 1583739288005
133, -27846.92, -32877.49, -21981.91, -17737.61, -22121.30, -22361.62, -25225.42, -24590.52, 0.000, 0.000, 0.000, 10:34:48.006, 1583739288006
134, -27427.60, -32850.83, -21863.94, -17616.37, -21545.36, -22237.50, -25039.76, -24299.83, 0.000, 0.000, 0.000, 10:34:48.006, 1583739288006
135, -27868.96, -32917.88, -21949.57, -17668.18, -21975.32, -22266.23, -25305.08, -24509.60, 0.000, 0.000, 0.000, 10:34:48.006, 1583739288006
136, -28449.17, -32961.56, -22114.64, -17873.10, -22765.97, -22499.87, -25598.87, -24894.23, 0.000, -0.020, 0.968, 10:34:48.006, 1583739288006
137, -28523.98, -32960.13, -22155.79, -17894.29, -22903.00, -22499.85, -25601.82, -24976.84, 0.000, 0.000, 0.000, 10:34:48.006, 1583739288006
138, -27860.46, -32886.32, -21994.72, -17741.72, -22129.54, -22366.76, -25236.21, -24596.02, 0.000, 0.000, 0.000, 10:34:48.006, 1583739288006
139, -27430.42, -32856.04, -21855.98, -17598.78, -21535.28, -22227.96, -25038.69, -24294.58, 0.000, 0.000, 0.000, 10:34:48.007, 1583739288007
140, -27867.39, -32918.93, -21932.63, -17640.15, -21955.89, -22248.99, -25299.04, -24497.94, 0.000, 0.000, 0.000, 10:34:48.007, 1583739288007
141, -28441.63, -32955.34, -22110.05, -17863.00, -22755.39, -22492.58, -25600.14, -24890.99, 0.000, 0.000, 0.000, 10:34:48.007, 1583739288007
142, -28517.29, -32948.04, -22156.61, -17899.72, -22903.50, -22502.42, -25607.01, -24983.37, 0.000, 0.000, 0.000, 10:34:48.007, 1583739288007
143, -27860.71, -32881.45, -21998.16, -17755.26, -22139.02, -22373.51, -25244.55, -24607.62, 0.000, 0.000, 0.000, 10:34:48.007, 1583739288007
144, -27429.97, -32857.60, -21866.87, -17616.95, -21546.32, -22239.29, -25045.96, -24305.24, 0.000, 0.000, 0.000, 10:34:48.007, 1583739288007
145, -27862.43, -32910.98, -21938.59, -17654.70, -21959.25, -22256.64, -25297.48, -24503.57, 0.000, 0.000, 0.000, 10:34:48.008, 1583739288008
146, -28440.54, -32957.51, -22112.22, -17874.60, -22758.17, -22499.29, -25594.63, -24895.26, 0.002, -0.018, 0.970, 10:34:48.008, 1583739288008
147, -28529.18, -32968.00, -22160.88, -17909.00, -22910.80, -22510.17, -25603.74, -24990.21, 0.000, 0.000, 0.000, 10:34:48.008, 1583739288008
148, -27866.75, -32883.26, -21991.88, -17747.31, -22137.05, -22369.49, -25234.83, -24606.21, 0.000, 0.000, 0.000, 10:34:48.009, 1583739288009
149, -27428.07, -32856.48, -21861.99, -17615.95, -21541.29, -22239.40, -25038.78, -24304.66, 0.000, 0.000, 0.000, 10:34:48.009, 1583739288009
150, -27859.64, -32922.35, -21945.59, -17663.94, -21959.92, -22261.87, -25298.49, -24505.63, 0.000, 0.000, 0.000, 10:34:48.009, 1583739288009
151, -28439.04, -32959.57, -22107.48, -17869.59, -22748.46, -22493.92, -25591.14, -24890.81, 0.000, 0.000, 0.000, 10:34:48.009, 1583739288009
152, -28526.77, -32958.90, -22146.82, -17898.43, -22903.34, -22502.24, -25600.86, -24986.12, 0.000, 0.000, 0.000, 10:34:48.009, 1583739288009
153, -27872.00, -32885.41, -21984.10, -17741.85, -22140.01, -22366.41, -25236.44, -24607.50, 0.000, 0.000, 0.000, 10:34:48.009, 1583739288009
154, -27432.92, -32857.33, -21855.58, -17608.10, -21537.89, -22234.02, -25035.72, -24302.43, 0.000, 0.000, 0.000, 10:34:48.010, 1583739288010
155, -27864.91, -32926.15, -21942.35, -17658.26, -21951.69, -22259.56, -25299.29, -24506.09, 0.000, 0.000, 0.000, 10:34:48.010, 1583739288010
156, -28441.92, -32963.57, -22112.07, -17873.95, -22749.29, -22499.13, -25599.68, -24896.20, 0.000, -0.018, 0.974, 10:34:48.010, 1583739288010
157, -28530.50, -32954.05, -22158.00, -17908.02, -22910.65, -22509.46, -25612.26, -24992.54, 0.000, 0.000, 0.000, 10:34:48.010, 1583739288010
158, -27877.41, -32882.48, -21989.94, -17754.41, -22146.58, -22372.24, -25245.60, -24614.77, 0.000, 0.000, 0.000, 10:34:48.011, 1583739288011
159, -27430.37, -32859.79, -21856.74, -17613.76, -21538.88, -22236.45, -25039.70, -24307.50, 0.000, 0.000, 0.000, 10:34:48.011, 1583739288011
160, -27856.69, -32927.94, -21937.14, -17654.01, -21943.85, -22255.38, -25294.44, -24505.49, 0.000, 0.000, 0.000, 10:34:48.011, 1583739288011
161, -28437.88, -32965.67, -22110.26, -17871.38, -22743.37, -22495.62, -25591.72, -24894.97, 0.000, 0.000, 0.000, 10:34:48.011, 1583739288011
162, -28529.21, -32958.07, -22159.43, -17908.42, -22910.80, -22508.25, -25605.69, -24992.69, 0.000, 0.000, 0.000, 10:34:48.012, 1583739288012
163, -27874.72, -32882.95, -22001.74, -17759.98, -22156.54, -22375.46, -25244.82, -24617.23, 0.000, 0.000, 0.000, 10:34:48.012, 1583739288012
164, -27423.78, -32856.41, -21865.88, -17625.71, -21544.60, -22244.25, -25039.05, -24310.81, 0.000, 0.000, 0.000, 10:34:48.012, 1583739288012
165, -27847.97, -32919.89, -21934.93, -17652.65, -21938.37, -22253.42, -25289.90, -24500.55, 0.000, 0.000, 0.000, 10:34:48.012, 1583739288012
166, -28425.96, -32952.41, -22098.50, -17853.03, -22731.30, -22482.61, -25584.28, -24882.05, 0.002, -0.022, 0.976, 10:34:48.013, 1583739288013
167, -28521.74, -32946.18, -22151.65, -17895.01, -22903.29, -22499.73, -25599.94, -24986.59, 0.000, 0.000, 0.000, 10:34:48.013, 1583739288013
168, -27874.88, -32873.69, -21998.65, -17752.25, -22154.38, -22373.00, -25243.48, -24621.23, 0.000, 0.000, 0.000, 10:34:48.013, 1583739288013
169, -27423.00, -32846.34, -21862.80, -17618.83, -21540.93, -22242.67, -25036.05, -24312.53, 0.000, 0.000, 0.000, 10:34:48.013, 1583739288013
170, -27843.03, -32918.22, -21938.30, -17658.99, -21935.82, -22257.96, -25288.25, -24505.63, 0.000, 0.000, 0.000, 10:34:48.014, 1583739288014
171, -28428.15, -32962.14, -22117.01, -17877.28, -22740.37, -22501.05, -25593.10, -24898.77, 0.000, 0.000, 0.000, 10:34:48.014, 1583739288014
172, -28533.86, -32957.47, -22173.18, -17921.03, -22924.42, -22521.53, -25616.30, -25006.26, 0.000, 0.000, 0.000, 10:34:48.014, 1583739288014
173, -27886.37, -32882.19, -22009.05, -17763.89, -22172.24, -22383.64, -25254.83, -24632.31, 0.000, 0.000, 0.000, 10:34:48.014, 1583739288014
174, -27428.63, -32861.20, -21869.44, -17618.00, -21552.36, -22246.22, -25044.64, -24316.39, 0.000, 0.000, 0.000, 10:34:48.015, 1583739288015
175, -27840.59, -32925.06, -21935.31, -17651.78, -21933.03, -22255.25, -25290.57, -24501.13, 0.000, 0.000, 0.000, 10:34:48.015, 1583739288015
176, -28423.86, -32962.86, -22105.70, -17862.29, -22730.58, -22491.80, -25591.05, -24889.81, 0.000, 0.000, 0.000, 10:34:48.015, 1583739288015
177, -28532.31, -32960.77, -22167.92, -17908.84, -22921.91, -22514.71, -25616.39, -25002.71, 0.000, -0.018, 0.972, 10:34:48.015, 1583739288015
178, -27889.84, -32887.04, -22016.45, -17765.77, -22180.13, -22385.74, -25264.56, -24637.95, 0.000, 0.000, 0.000, 10:34:48.015, 1583739288015
179, -27425.57, -32855.59, -21871.99, -17625.78, -21552.31, -22249.28, -25047.83, -24319.90, 0.000, 0.000, 0.000, 10:34:48.016, 1583739288016
180, -27836.24, -32917.05, -21939.00, -17652.31, -21931.55, -22254.98, -25292.76, -24502.09, 0.000, 0.000, 0.000, 10:34:48.016, 1583739288016
181, -28422.68, -32955.34, -22101.94, -17861.39, -22727.30, -22490.71, -25593.69, -24890.03, 0.000, 0.000, 0.000, 10:34:48.016, 1583739288016
182, -28536.11, -32958.07, -22158.40, -17905.74, -22921.96, -22512.25, -25617.56, -25002.12, 0.000, 0.000, 0.000, 10:34:48.016, 1583739288016
183, -27896.38, -32889.45, -22007.68, -17761.93, -22183.41, -22382.95, -25263.64, -24636.65, 0.000, 0.000, 0.000, 10:34:48.016, 1583739288016
184, -27424.76, -32852.50, -21868.83, -17625.78, -21553.12, -22249.15, -25046.67, -24315.84, 0.000, 0.000, 0.000, 10:34:48.016, 1583739288016
185, -27838.00, -32916.65, -21939.06, -17658.66, -21929.34, -22257.58, -25294.04, -24499.97, 0.000, 0.000, 0.000, 10:34:48.017, 1583739288017
186, -28423.71, -32960.20, -22109.34, -17870.08, -22729.46, -22493.16, -25595.29, -24889.31, 0.000, 0.000, 0.000, 10:34:48.017, 1583739288017
187, -28538.30, -32961.22, -22162.63, -17914.05, -22923.39, -22512.50, -25619.61, -25002.55, 0.006, -0.020, 0.974, 10:34:48.017, 1583739288017
188, -27901.17, -32888.04, -22009.25, -17771.40, -22182.03, -22381.96, -25264.04, -24637.66, 0.000, 0.000, 0.000, 10:34:48.017, 1583739288017
189, -27434.11, -32858.34, -21869.26, -17634.01, -21547.68, -22250.29, -25047.12, -24318.56, 0.000, 0.000, 0.000, 10:34:48.017, 1583739288017
190, -27840.10, -32918.64, -21933.43, -17649.41, -21916.82, -22247.52, -25286.39, -24492.39, 0.000, 0.000, 0.000, 10:34:48.017, 1583739288017
191, -28428.06, -32954.94, -22103.95, -17860.09, -22721.38, -22484.33, -25588.12, -24882.79, 0.000, 0.000, 0.000, 10:34:48.018, 1583739288018
192, -28548.63, -32956.46, -22161.62, -17910.25, -22924.37, -22510.37, -25616.86, -25001.03, 0.000, 0.000, 0.000, 10:34:48.018, 1583739288018
193, -27913.01, -32889.99, -22002.54, -17758.24, -22185.65, -22374.59, -25259.50, -24634.88, 0.000, 0.000, 0.000, 10:34:48.018, 1583739288018
194, -27435.71, -32862.09, -21862.69, -17616.33, -21547.80, -22239.11, -25039.14, -24310.52, 0.000, 0.000, 0.000, 10:34:48.018, 1583739288018
195, -27835.01, -32926.22, -21935.49, -17651.91, -21915.15, -22248.19, -25284.78, -24492.37, 0.000, 0.000, 0.000, 10:34:48.018, 1583739288018
196, -28419.82, -32961.94, -22096.62, -17858.95, -22711.25, -22481.74, -25582.87, -24879.79, 0.000, 0.000, 0.000, 10:34:48.018, 1583739288018
197, -28544.16, -32962.81, -22153.10, -17904.57, -22922.07, -22506.02, -25610.76, -24998.03, 0.002, -0.022, 0.974, 10:34:48.018, 1583739288018
198, -27917.17, -32896.09, -22013.18, -17770.57, -22200.53, -22385.76, -25267.78, -24645.50, 0.000, 0.000, 0.000, 10:34:48.019, 1583739288019
199, -27437.97, -32863.99, -21877.22, -17637.09, -21561.77, -22258.29, -25050.29, -24326.92, 0.000, 0.000, 0.000, 10:34:48.019, 1583739288019
200, -27827.52, -32921.53, -21940.00, -17655.17, -21917.25, -22254.40, -25287.47, -24498.34, 0.000, 0.000, 0.000, 10:34:48.019, 1583739288019
201, -28415.66, -32961.82, -22110.75, -17870.31, -22721.08, -22493.16, -25593.51, -24889.18, 0.000, 0.000, 0.000, 10:34:48.019, 1583739288019
202, -28549.44, -32972.71, -22172.82, -17928.04, -22940.67, -22527.12, -25628.62, -25017.21, 0.000, 0.000, 0.000, 10:34:48.019, 1583739288019
203, -27918.20, -32894.39, -22019.84, -17779.49, -22207.17, -22394.23, -25274.57, -24656.50, 0.000, 0.000, 0.000, 10:34:48.019, 1583739288019
204, -27431.31, -32856.93, -21877.28, -17637.18, -21562.59, -22260.55, -25051.99, -24328.31, 0.000, 0.000, 0.000, 10:34:48.019, 1583739288019
205, -27826.00, -32922.64, -21942.93, -17665.48, -21914.74, -22262.87, -25290.98, -24501.91, 0.000, 0.000, 0.000, 10:34:48.019, 1583739288019
206, -28419.55, -32970.16, -22116.58, -17881.55, -22719.65, -22501.88, -25598.38, -24896.29, 0.000, 0.000, 0.000, 10:34:48.020, 1583739288020
207, -28549.61, -32963.37, -22173.06, -17923.28, -22936.91, -22524.32, -25631.95, -25015.74, 0.006, -0.020, 0.974, 10:34:48.020, 1583739288020
208, -27924.70, -32893.68, -22022.44, -17773.62, -22210.88, -22391.62, -25284.31, -24657.30, 0.000, 0.000, 0.000, 10:34:48.020, 1583739288020
209, -27438.08, -32868.78, -21881.20, -17639.75, -21564.76, -22264.06, -25059.08, -24332.15, 0.000, 0.000, 0.000, 10:34:48.020, 1583739288020
210, -27824.90, -32934.29, -21946.37, -17666.77, -21917.52, -22265.33, -25295.07, -24503.28, 0.000, 0.000, 0.000, 10:34:48.020, 1583739288020
211, -28415.19, -32968.17, -22108.00, -17870.69, -22718.11, -22495.22, -25596.59, -24890.10, 0.000, 0.000, 0.000, 10:34:48.020, 1583739288020
212, -28554.53, -32962.59, -22172.08, -17920.11, -22943.30, -22522.91, -25635.17, -25017.19, 0.000, 0.000, 0.000, 10:34:48.020, 1583739288020
213, -27931.10, -32894.01, -22022.35, -17771.67, -22223.04, -22390.68, -25287.15, -24660.81, 0.000, 0.000, 0.000, 10:34:48.020, 1583739288020
214, -27437.44, -32868.62, -21886.07, -17641.25, -21577.75, -22266.07, -25062.09, -24335.06, 0.000, 0.000, 0.000, 10:34:48.021, 1583739288021
215, -27821.08, -32929.35, -21954.71, -17670.78, -21924.89, -22268.97, -25299.85, -24505.36, 0.000, 0.000, 0.000, 10:34:48.021, 1583739288021
216, -28412.46, -32969.16, -22120.00, -17880.37, -22726.83, -22504.45, -25605.17, -24896.62, 0.000, 0.000, 0.000, 10:34:48.021, 1583739288021
217, -28560.01, -32977.90, -22180.91, -17930.88, -22954.39, -22534.69, -25644.24, -25027.96, 0.004, -0.020, 0.974, 10:34:48.021, 1583739288021
218, -27946.90, -32912.45, -22034.64, -17786.15, -22235.29, -22404.02, -25297.14, -24675.41, 0.000, 0.000, 0.000, 10:34:48.021, 1583739288021
219, -27445.53, -32873.36, -21886.16, -17641.20, -21575.69, -22267.81, -25061.24, -24338.97, 0.000, 0.000, 0.000, 10:34:48.021, 1583739288021
220, -27821.82, -32934.20, -21946.24, -17664.34, -21913.74, -22264.59, -25294.37, -24504.75, 0.000, 0.000, 0.000, 10:34:48.022, 1583739288022
221, -28416.31, -32975.44, -22125.50, -17885.17, -22727.68, -22507.89, -25609.22, -24901.50, 0.000, 0.000, 0.000, 10:34:48.022, 1583739288022
222, -28562.42, -32985.61, -22192.46, -17941.05, -22967.56, -22542.85, -25654.68, -25035.07, 0.000, 0.000, 0.000, 10:34:48.022, 1583739288022
223, -27944.69, -32913.61, -22027.35, -17778.46, -22238.26, -22398.66, -25299.89, -24671.94, 0.000, 0.000, 0.000, 10:34:48.022, 1583739288022
224, -27437.41, -32861.13, -21872.32, -17625.51, -21568.00, -22257.08, -25057.47, -24327.17, 0.000, 0.000, 0.000, 10:34:48.022, 1583739288022
225, -27812.77, -32924.32, -21939.94, -17652.45, -21903.57, -22255.77, -25288.45, -24490.76, 0.000, 0.000, 0.000, 10:34:48.474, 1583739288474
226, -28402.63, -32962.09, -22115.89, -17872.23, -22712.68, -22497.79, -25598.16, -24884.46, 0.000, 0.000, 0.000, 10:34:48.474, 1583739288474
227, -28553.06, -32960.37, -22192.78, -17941.97, -22964.61, -22543.14, -25650.30, -25027.65, 0.002, -0.022, 0.972, 10:34:48.474, 1583739288474
228, -27939.72, -32893.34, -22052.03, -17801.09, -22259.81, -22416.36, -25310.76, -24681.38, 0.000, 0.000, 0.000, 10:34:48.475, 1583739288475
229, -27433.44, -32862.29, -21894.65, -17653.81, -21590.35, -22280.64, -25070.83, -24341.54, 0.000, 0.000, 0.000, 10:34:48.475, 1583739288475
230, -27806.82, -32931.88, -21951.02, -17669.30, -21912.78, -22270.34, -25298.57, -24499.90, 0.000, 0.000, 0.000, 10:34:48.475, 1583739288475
231, -28404.75, -32974.52, -22125.19, -17876.21, -22719.16, -22504.74, -25609.94, -24892.31, 0.000, 0.000, 0.000, 10:34:48.475, 1583739288475
232, -28559.18, -32972.22, -22190.05, -17935.17, -22964.45, -22540.48, -25655.35, -25029.93, 0.000, 0.000, 0.000, 10:34:48.475, 1583739288475
233, -27944.31, -32903.13, -22038.30, -17791.14, -22252.81, -22406.66, -25308.39, -24679.25, 0.000, 0.000, 0.000, 10:34:48.475, 1583739288475
234, -27431.89, -32860.80, -21889.96, -17647.28, -21581.75, -22272.87, -25067.93, -24338.61, 0.000, 0.000, 0.000, 10:34:48.475, 1583739288475
235, -27796.00, -32916.16, -21944.12, -17661.63, -21898.72, -22261.22, -25290.75, -24491.83, 0.000, 0.000, 0.000, 10:34:48.476, 1583739288476
236, -28392.32, -32956.35, -22117.18, -17876.03, -22707.23, -22500.74, -25599.52, -24884.35, 0.000, 0.000, 0.000, 10:34:48.476, 1583739288476
237, -28555.76, -32961.80, -22191.62, -17941.45, -22965.12, -22544.95, -25653.32, -25030.02, 0.010, -0.020, 0.974, 10:34:48.476, 1583739288476
238, -27945.58, -32895.06, -22046.58, -17794.89, -22259.07, -22412.21, -25308.70, -24683.01, 0.000, 0.000, 0.000, 10:34:48.476, 1583739288476
239, -27428.41, -32857.31, -21890.83, -17647.08, -21579.18, -22277.00, -25062.34, -24340.47, 0.000, 0.000, 0.000, 10:34:48.479, 1583739288479
240, -27790.57, -32917.43, -21941.63, -17655.96, -21888.75, -22259.77, -25281.10, -24489.76, 0.000, 0.000, 0.000, 10:34:48.479, 1583739288479
241, -28388.53, -32962.25, -22106.57, -17860.56, -22688.67, -22489.41, -25586.42, -24875.63, 0.000, 0.000, 0.000, 10:34:48.479, 1583739288479
242, -28550.78, -32967.91, -22171.07, -17920.71, -22945.12, -22527.67, -25637.83, -25017.01, 0.000, 0.000, 0.000, 10:34:48.480, 1583739288480
243, -27944.71, -32898.79, -22030.01, -17780.83, -22250.42, -22398.37, -25298.33, -24673.53, 0.000, 0.000, 0.000, 10:34:48.480, 1583739288480
244, -27426.37, -32856.32, -21885.80, -17646.25, -21576.52, -22270.58, -25057.29, -24333.31, 0.000, 0.000, 0.000, 10:34:48.480, 1583739288480
245, -27789.99, -32910.89, -21946.44, -17667.06, -21892.82, -22263.21, -25286.04, -24488.03, 0.000, 0.000, 0.000, 10:34:48.480, 1583739288480
246, -28387.65, -32960.42, -22111.24, -17862.71, -22695.87, -22490.26, -25593.73, -24873.29, 0.000, 0.000, 0.000, 10:34:48.480, 1583739288480
247, -28555.20, -32966.36, -22174.38, -17917.34, -22955.29, -22527.23, -25643.84, -25016.12, 0.006, -0.018, 0.970, 10:34:48.480, 1583739288480
248, -27951.77, -32894.57, -22030.53, -17777.79, -22261.20, -22398.44, -25304.57, -24675.63, 0.000, 0.000, 0.000, 10:34:48.481, 1583739288481
249, -27426.42, -32854.87, -21879.88, -17633.60, -21577.63, -22264.71, -25055.90, -24329.36, 0.000, 0.000, 0.000, 10:34:48.481, 1583739288481
250, -27782.66, -32920.34, -21941.90, -17652.89, -21890.05, -22257.58, -25281.05, -24483.00, 0.000, 0.000, 0.000, 10:34:48.481, 1583739288481
251, -28384.26, -32957.31, -22118.37, -17868.90, -22699.40, -22497.28, -25596.59, -24877.80, 0.000, 0.000, 0.000, 10:34:48.481, 1583739288481
252, -28558.67, -32961.82, -22190.41, -17936.65, -22970.28, -22543.63, -25653.57, -25028.90, 0.000, 0.000, 0.000, 10:34:48.481, 1583739288481
253, -27960.56, -32901.77, -22043.83, -17794.76, -22278.97, -22412.99, -25313.13, -24689.13, 0.000, 0.000, 0.000, 10:34:48.481, 1583739288481
254, -27430.66, -32860.73, -21891.01, -17648.24, -21591.07, -22277.83, -25060.35, -24340.58, 0.000, 0.000, 0.000, 10:34:48.481, 1583739288481
255, -27783.37, -32916.56, -21949.23, -17663.22, -21888.41, -22265.29, -25280.98, -24489.06, 0.000, 0.000, 0.000, 10:34:48.481, 1583739288481
0, -28383.94, -32955.95, -22120.72, -17877.95, -22697.95, -22503.91, -25597.57, -24883.73, 0.000, 0.000, 0.000, 10:34:48.481, 1583739288481
1, -28562.58, -32965.25, -22196.78, -17953.79, -22980.81, -22557.09, -25662.08, -25042.16, 0.004, -0.020, 0.966, 10:34:48.481, 1583739288481
2, -27968.38, -32904.70, -22058.18, -17810.14, -22295.24, -22427.20, -25325.91, -24705.94, 0.000, 0.000, 0.000, 10:34:48.482, 1583739288482
3, -27436.30, -32866.14, -21901.18, -17654.53, -21599.59, -22287.30, -25070.07, -24351.35, 0.000, 0.000, 0.000, 10:34:48.482, 1583739288482
4, -27779.69, -32922.02, -21947.49, -17661.37, -21886.58, -22264.13, -25282.06, -24489.26, 0.000, 0.000, 0.000, 10:34:48.482, 1583739288482
5, -28384.61, -32962.61, -22122.91, -17880.99, -22694.53, -22504.76, -25599.97, -24886.14, 0.000, 0.000, 0.000, 10:34:48.482, 1583739288482
6, -28564.32, -32960.39, -22198.39, -17957.28, -22975.94, -22558.54, -25660.38, -25043.36, 0.000, 0.000, 0.000, 10:34:48.482, 1583739288482
7, -27974.12, -32895.87, -22060.54, -17818.05, -22295.30, -22429.26, -25326.18, -24708.85, 0.000, 0.000, 0.000, 10:34:48.482, 1583739288482
8, -27430.33, -32862.36, -21894.27, -17647.95, -21590.71, -22276.82, -25061.02, -24343.31, 0.000, 0.000, 0.000, 10:34:48.482, 1583739288482
9, -27771.33, -32917.41, -21937.63, -17645.79, -21871.36, -22250.09, -25269.16, -24476.10, 0.000, 0.000, 0.000, 10:34:48.482, 1583739288482
10, -28375.29, -32962.52, -22104.58, -17859.63, -22678.08, -22487.35, -25582.87, -24869.67, 0.000, 0.000, 0.000, 10:34:48.483, 1583739288483
11, -28557.08, -32966.07, -22176.30, -17928.87, -22963.44, -22535.90, -25646.30, -25026.73, 0.000, 0.000, 0.000, 10:34:48.483, 1583739288483
12, -27964.06, -32893.65, -22034.84, -17788.10, -22284.62, -22403.18, -25310.53, -24689.76, 0.006, -0.022, 0.968, 10:34:48.483, 1583739288483
13, -27422.57, -32848.23, -21879.34, -17637.04, -21584.50, -22264.91, -25052.15, -24331.79, 0.000, 0.000, 0.000, 10:34:48.483, 1583739288483
14, -27765.54, -32911.02, -21928.89, -17644.62, -21865.46, -22244.25, -25266.39, -24468.23, 0.000, 0.000, 0.000, 10:34:48.483, 1583739288483
15, -28370.38, -32955.25, -22100.76, -17858.17, -22675.15, -22480.56, -25583.36, -24861.64, 0.000, 0.000, 0.000, 10:34:48.483, 1583739288483
16, -28556.86, -32958.92, -22177.42, -17929.47, -22968.79, -22532.32, -25648.54, -25021.64, 0.000, 0.000, 0.000, 10:34:48.483, 1583739288483
17, -27974.08, -32894.05, -22037.97, -17788.68, -22291.42, -22402.46, -25314.76, -24690.23, 0.000, 0.000, 0.000, 10:34:48.484, 1583739288484
18, -27428.63, -32848.70, -21875.70, -17631.95, -21580.59, -22260.39, -25050.70, -24328.53, 0.000, 0.000, 0.000, 10:34:48.484, 1583739288484
19, -27760.91, -32902.35, -21927.26, -17638.12, -21859.40, -22236.72, -25262.66, -24461.44, 0.000, 0.000, 0.000, 10:34:48.484, 1583739288484
20, -28365.30, -32954.18, -22105.18, -17855.24, -22674.99, -22475.10, -25583.07, -24857.87, 0.000, 0.000, 0.000, 10:34:48.484, 1583739288484
21, -28555.29, -32956.53, -22176.57, -17929.47, -22970.75, -22527.81, -25648.16, -25021.10, 0.000, 0.000, 0.000, 10:34:48.484, 1583739288484
22, -27978.48, -32892.13, -22034.68, -17789.24, -22293.88, -22398.86, -25316.08, -24691.72, 0.008, -0.018, 0.964, 10:34:48.484, 1583739288484
23, -27429.63, -32853.64, -21880.50, -17641.31, -21588.16, -22263.14, -25053.71, -24331.75, 0.000, 0.000, 0.000, 10:34:48.484, 1583739288484
24, -27761.94, -32913.79, -21934.35, -17653.32, -21860.61, -22245.04, -25266.01, -24467.87, 0.000, 0.000, 0.000, 10:34:48.484, 1583739288484
25, -28371.49, -32963.17, -22110.28, -17866.53, -22672.80, -22483.48, -25585.75, -24865.04, 0.000, 0.000, 0.000, 10:34:48.485, 1583739288485
26, -28571.79, -32966.72, -22186.61, -17936.29, -22974.49, -22537.84, -25657.68, -25030.29, 0.000, 0.000, 0.000, 10:34:48.485, 1583739288485
27, -27992.74, -32897.39, -22045.17, -17799.68, -22306.53, -22410.13, -25330.31, -24705.18, 0.000, 0.000, 0.000, 10:34:48.485, 1583739288485
28, -27439.43, -32853.29, -21897.09, -17662.50, -21606.69, -22282.72, -25071.41, -24351.24, 0.000, 0.000, 0.000, 10:34:48.485, 1583739288485
29, -27765.16, -32913.41, -21949.61, -17668.58, -21874.91, -22260.04, -25279.71, -24481.96, 0.000, 0.000, 0.000, 10:34:48.485, 1583739288485
30, -28365.28, -32963.32, -22109.54, -17869.53, -22674.93, -22488.45, -25591.36, -24869.91, 0.000, 0.000, 0.000, 10:34:48.485, 1583739288485
31, -28558.24, -32961.02, -22175.77, -17933.16, -22974.49, -22534.80, -25656.54, -25030.20, 0.000, 0.000, 0.000, 10:34:48.485, 1583739288485
32, -27982.28, -32893.38, -22039.87, -17789.93, -22309.63, -22403.22, -25330.31, -24704.18, 0.004, -0.020, 0.962, 10:34:48.485, 1583739288485
33, -27428.14, -32846.98, -21891.34, -17648.74, -21603.27, -22274.00, -25067.32, -24345.94, 0.000, 0.000, 0.000, 10:34:48.486, 1583739288486
34, -27749.51, -32903.62, -21944.54, -17661.28, -21865.15, -22254.31, -25274.77, -24476.41, 0.000, 0.000, 0.000, 10:34:48.486, 1583739288486
35, -28354.33, -32953.02, -22119.60, -17877.62, -22676.92, -22494.15, -25596.23, -24872.71, 0.000, 0.000, 0.000, 10:34:48.486, 1583739288486
36, -28556.14, -32958.20, -22191.01, -17947.87, -22986.42, -22547.99, -25664.85, -25040.12, 0.000, 0.000, 0.000, 10:34:48.487, 1583739288487
37, -27986.62, -32884.60, -22047.74, -17796.64, -22318.19, -22409.19, -25333.58, -24710.39, 0.000, 0.000, 0.000, 10:34:48.487, 1583739288487
38, -27430.80, -32842.69, -21896.13, -17646.61, -21604.84, -22274.54, -25068.58, -24346.73, 0.000, 0.000, 0.000, 10:34:48.487, 1583739288487
39, -27742.02, -32908.38, -21941.19, -17646.19, -21857.52, -22244.48, -25267.46, -24467.07, 0.000, 0.000, 0.000, 10:34:48.487, 1583739288487
40, -28348.40, -32954.11, -22109.74, -17856.23, -22663.35, -22477.83, -25584.28, -24860.03, 0.000, 0.000, 0.000, 10:34:48.487, 1583739288487
41, -28556.56, -32959.37, -22191.64, -17936.29, -22982.44, -22539.21, -25662.15, -25035.36, 0.000, 0.000, 0.000, 10:34:48.487, 1583739288487
42, -27991.00, -32896.71, -22057.88, -17802.85, -22327.96, -22412.61, -25340.98, -24717.14, 0.002, -0.016, 0.966, 10:34:48.487, 1583739288487
43, -27432.32, -32850.94, -21897.71, -17655.17, -21606.58, -22279.41, -25068.80, -24352.31, 0.000, 0.000, 0.000, 10:34:48.487, 1583739288487
44, -27744.41, -32908.34, -21942.68, -17658.88, -21853.54, -22252.59, -25267.95, -24474.80, 0.000, 0.000, 0.000, 10:34:48.488, 1583739288488
45, -28353.54, -32960.98, -22114.41, -17868.81, -22663.53, -22487.58, -25588.90, -24869.33, 0.000, 0.000, 0.000, 10:34:48.488, 1583739288488
46, -28567.63, -32965.27, -22196.11, -17942.73, -22987.36, -22545.73, -25668.05, -25040.57, 0.000, 0.000, 0.000, 10:34:48.488, 1583739288488
47, -28004.50, -32896.49, -22063.07, -17806.72, -22334.96, -22417.28, -25346.74, -24721.19, 0.000, 0.000, 0.000, 10:34:48.488, 1583739288488
48, -27439.71, -32855.07, -21894.36, -17650.86, -21603.83, -22279.90, -25070.19, -24350.53, 0.000, 0.000, 0.000, 10:34:48.488, 1583739288488
49, -27749.62, -32914.04, -21927.15, -17642.79, -21837.74, -22245.10, -25259.57, -24464.16, 0.000, 0.000, 0.000, 10:34:48.488, 1583739288488
50, -28360.90, -32961.71, -22099.06, -17856.61, -22649.40, -22479.84, -25580.99, -24860.06, 0.000, 0.000, 0.000, 10:34:48.489, 1583739288489
51, -28577.44, -32967.55, -22187.23, -17940.36, -22985.82, -22545.85, -25665.75, -25040.99, 0.000, 0.000, 0.000, 10:34:48.489, 1583739288489
52, -28018.76, -32904.32, -22059.63, -17812.37, -22344.23, -22422.89, -25351.04, -24730.10, 0.004, -0.018, 0.972, 10:34:48.489, 1583739288489
53, -27449.28, -32863.34, -21900.26, -17669.01, -21618.27, -22293.52, -25079.19, -24364.79, 0.000, 0.000, 0.000, 10:34:48.489, 1583739288489
54, -27756.11, -32925.08, -21939.58, -17659.80, -21850.06, -22256.90, -25272.87, -24476.93, 0.000, 0.000, 0.000, 10:34:48.489, 1583739288489
55, -28366.24, -32967.05, -22102.32, -17856.90, -22651.86, -22479.28, -25587.07, -24862.47, 0.000, 0.000, 0.000, 10:34:48.489, 1583739288489
56, -28583.92, -32978.01, -22187.91, -17936.78, -22988.43, -22541.38, -25671.34, -25040.28, 0.000, 0.000, 0.000, 10:34:48.489, 1583739288489
57, -28025.82, -32909.81, -22051.60, -17803.39, -22341.39, -22412.45, -25351.15, -24725.74, 0.000, 0.000, 0.000, 10:34:48.490, 1583739288490
58, -27456.01, -32862.85, -21888.26, -17652.04, -21605.22, -22275.97, -25070.86, -24354.57, 0.000, 0.000, 0.000, 10:34:48.490, 1583739288490
59, -27756.55, -32922.71, -21931.51, -17650.63, -21838.70, -22243.49, -25265.09, -24466.69, 0.000, 0.000, 0.000, 10:34:48.490, 1583739288490
60, -28366.51, -32968.78, -22102.50, -17858.75, -22648.60, -22476.58, -25587.09, -24859.54, 0.000, 0.000, 0.000, 10:34:48.490, 1583739288490
61, -28586.14, -32969.31, -22183.93, -17934.79, -22984.46, -22537.35, -25669.26, -25037.69, 0.000, 0.000, 0.000, 10:34:48.490, 1583739288490
62, -28030.25, -32909.48, -22056.72, -17807.92, -22347.14, -22413.81, -25352.31, -24728.99, 0.004, -0.014, 0.972, 10:34:48.490, 1583739288490
63, -27451.54, -32858.88, -21897.76, -17658.66, -21614.81, -22281.49, -25075.75, -24358.24, 0.000, 0.000, 0.000, 10:34:48.490, 1583739288490
64, -27748.84, -32915.18, -21938.01, -17646.46, -21840.43, -22242.24, -25267.28, -24464.03, 0.000, 0.000, 0.000, 10:34:48.490, 1583739288490
65, -28359.09, -32965.56, -22098.32, -17848.00, -22642.70, -22466.07, -25582.44, -24850.13, 0.000, 0.000, 0.000, 10:34:48.490, 1583739288490
66, -28583.95, -32969.45, -22181.40, -17938.41, -22985.24, -22536.44, -25668.23, -25035.94, 0.000, 0.000, 0.000, 10:34:48.490, 1583739288490
67, -28028.73, -32898.08, -22057.24, -17806.38, -22348.70, -22408.85, -25351.64, -24726.33, 0.000, 0.000, 0.000, 10:34:48.491, 1583739288491
68, -27443.31, -32850.22, -21898.16, -17657.68, -21611.99, -22274.43, -25070.97, -24350.82, 0.000, 0.000, 0.000, 10:34:48.491, 1583739288491
69, -27730.45, -32910.93, -21931.73, -17647.19, -21827.95, -22236.56, -25258.05, -24454.62, 0.000, 0.000, 0.000, 10:34:48.491, 1583739288491
70, -28338.97, -32958.74, -22091.01, -17845.25, -22630.40, -22461.69, -25573.55, -24842.76, 0.000, 0.000, 0.000, 10:34:48.491, 1583739288491
71, -28572.32, -32962.68, -22176.69, -17930.14, -22978.98, -22532.03, -25660.72, -25028.30, 0.000, 0.000, 0.000, 10:34:48.491, 1583739288491
72, -28026.83, -32900.85, -22050.73, -17800.17, -22351.88, -22406.88, -25346.79, -24723.02, 0.004, -0.016, 0.970, 10:34:48.491, 1583739288491
73, -27442.38, -32859.32, -21888.84, -17654.10, -21613.67, -22275.48, -25062.63, -24350.77, 0.000, 0.000, 0.000, 10:34:48.491, 1583739288491
74, -27728.59, -32913.88, -21926.64, -17645.12, -21826.52, -22235.87, -25250.21, -24452.47, 0.000, 0.000, 0.000, 10:34:48.491, 1583739288491
75, -28339.06, -32955.39, -22097.67, -17849.48, -22633.02, -22462.29, -25571.76, -24842.09, 0.000, 0.000, 0.000, 10:34:48.495, 1583739288495
76, -28572.10, -32958.12, -22185.60, -17937.61, -22987.81, -22535.43, -25662.98, -25032.39, 0.000, 0.000, 0.000, 10:34:48.496, 1583739288496
77, -28027.90, -32899.09, -22057.28, -17803.99, -22361.85, -22408.56, -25351.28, -24727.20, 0.000, 0.000, 0.000, 10:34:48.496, 1583739288496
78, -27444.68, -32858.16, -21897.00, -17656.67, -21619.97, -22277.25, -25069.56, -24353.21, 0.000, 0.000, 0.000, 10:34:48.496, 1583739288496
79, -27727.27, -32908.25, -21933.01, -17645.94, -21825.40, -22238.38, -25252.26, -24453.08, 0.000, 0.000, 0.000, 10:34:48.496, 1583739288496
80, -28339.91, -32954.83, -22099.59, -17846.39, -22631.30, -22464.38, -25570.91, -24840.88, 0.000, 0.000, 0.000, 10:34:48.496, 1583739288496
81, -28580.50, -32971.64, -22188.46, -17936.27, -22989.62, -22538.52, -25665.90, -25035.12, 0.000, 0.000, 0.000, 10:34:48.496, 1583739288496
82, -28042.61, -32914.93, -22063.29, -17807.88, -22366.99, -22414.91, -25356.62, -24735.76, -0.002, -0.018, 0.968, 10:34:48.496, 1583739288496
83, -27456.79, -32865.49, -21902.76, -17664.49, -21624.93, -22285.54, -25071.17, -24360.29, 0.000, 0.000, 0.000, 10:34:48.497, 1583739288497
84, -27732.99, -32922.55, -21932.58, -17657.97, -21823.21, -22246.87, -25252.75, -24459.80, 0.000, 0.000, 0.000, 10:34:48.497, 1583739288497
85, -28348.40, -32969.25, -22103.59, -17855.18, -22629.89, -22472.71, -25577.90, -24850.11, 0.000, 0.000, 0.000, 10:34:48.497, 1583739288497
86, -28589.13, -32975.91, -22184.71, -17932.13, -22987.05, -22541.00, -25668.79, -25037.91, 0.000, 0.000, 0.000, 10:34:48.497, 1583739288497
87, -28050.83, -32920.45, -22055.40, -17800.91, -22364.17, -22415.56, -25357.47, -24738.51, 0.000, 0.000, 0.000, 10:34:48.497, 1583739288497
88, -27457.20, -32871.28, -21895.86, -17658.21, -21618.09, -22286.68, -25070.59, -24363.09, 0.000, 0.000, 0.000, 10:34:48.497, 1583739288497
89, -27733.53, -32924.57, -21937.03, -17656.92, -21820.51, -22250.07, -25254.99, -24462.06, 0.000, 0.000, 0.000, 10:34:48.497, 1583739288497
90, -28345.74, -32971.46, -22097.29, -17854.04, -22620.75, -22471.33, -25573.39, -24849.53, 0.000, 0.000, 0.000, 10:34:48.955, 1583739288955
91, -28587.32, -32975.71, -22185.42, -17939.49, -22987.43, -22544.97, -25667.89, -25043.50, 0.000, 0.000, 0.000, 10:34:48.955, 1583739288955
92, -28052.00, -32918.96, -22061.57, -17806.38, -22374.61, -22416.12, -25360.56, -24743.43, -0.002, -0.018, 0.972, 10:34:48.955, 1583739288955
93, -27459.54, -32871.75, -21897.49, -17658.73, -21622.05, -22283.32, -25071.57, -24361.84, 0.000, 0.000, 0.000, 10:34:48.955, 1583739288955
94, -27728.95, -32923.83, -21927.78, -17648.62, -21810.25, -22240.46, -25246.72, -24452.67, 0.000, 0.000, 0.000, 10:34:48.955, 1583739288955
95, -28341.92, -32965.18, -22097.31, -17847.93, -22615.90, -22464.49, -25568.83, -24842.64, 0.000, 0.000, 0.000, 10:34:48.955, 1583739288955
96, -28586.72, -32975.06, -22189.63, -17941.45, -22990.29, -22543.61, -25667.76, -25041.24, 0.000, 0.000, 0.000, 10:34:48.956, 1583739288956
97, -28061.72, -32918.82, -22070.92, -17822.79, -22382.90, -22425.71, -25365.29, -24750.44, 0.000, 0.000, 0.000, 10:34:48.956, 1583739288956
98, -27457.53, -32862.11, -21900.10, -17659.06, -21621.56, -22284.89, -25068.69, -24362.06, 0.000, 0.000, 0.000, 10:34:48.956, 1583739288956
99, -27718.82, -32912.34, -21921.23, -17631.73, -21799.88, -22231.29, -25239.41, -24444.07, 0.000, 0.000, 0.000, 10:34:48.956, 1583739288956
100, -28332.38, -32960.93, -22077.24, -17824.58, -22599.15, -22448.46, -25559.76, -24828.25, 0.000, 0.000, 0.000, 10:34:48.956, 1583739288956
101, -28587.23, -32973.94, -22170.09, -17917.87, -22976.18, -22527.63, -25660.18, -25029.84, 0.000, 0.000, 0.000, 10:34:48.959, 1583739288959
102, -28059.84, -32906.62, -22052.21, -17790.58, -22372.82, -22404.43, -25358.32, -24737.50, 0.000, 0.000, 0.000, 10:34:48.960, 1583739288960
103, -27457.49, -32853.91, -21886.25, -17642.39, -21616.13, -22273.87, -25064.89, -24354.88, 0.002, -0.024, 0.970, 10:34:48.960, 1583739288960
104, -27713.86, -32903.40, -21912.49, -17622.25, -21791.27, -22222.93, -25232.06, -24437.72, 0.000, 0.000, 0.000, 10:34:48.960, 1583739288960
105, -28322.45, -32950.18, -22081.78, -17824.91, -22595.94, -22446.65, -25554.88, -24826.57, 0.000, 0.000, 0.000, 10:34:48.960, 1583739288960
106, -28580.44, -32958.41, -22184.31, -17931.37, -22990.82, -22538.36, -25667.04, -25036.01, 0.000, 0.000, 0.000, 10:34:48.961, 1583739288961
107, -28062.10, -32903.80, -22064.26, -17808.46, -22392.89, -22418.82, -25366.93, -24748.77, 0.000, 0.000, 0.000, 10:34:48.961, 1583739288961
108, -27454.22, -32856.37, -21900.22, -17665.43, -21635.33, -22291.66, -25072.40, -24367.56, 0.000, 0.000, 0.000, 10:34:48.961, 1583739288961
109, -27710.39, -32913.43, -21925.99, -17647.86, -21807.79, -22243.88, -25243.86, -24451.53, 0.000, 0.000, 0.000, 10:34:48.961, 1583739288961
110, -28319.95, -32955.90, -22090.25, -17838.39, -22605.48, -22461.02, -25564.20, -24834.71, 0.000, 0.000, 0.000, 10:34:48.961, 1583739288961
111, -28578.63, -32962.25, -22186.74, -17938.86, -22995.18, -22544.97, -25671.25, -25040.93, 0.000, 0.000, 0.000, 10:34:48.961, 1583739288961
112, -28063.80, -32908.29, -22066.83, -17815.50, -22398.55, -22422.29, -25373.01, -24753.80, 0.000, 0.000, 0.000, 10:34:48.961, 1583739288961
113, -27458.80, -32858.80, -21899.43, -17657.79, -21635.21, -22285.98, -25075.28, -24363.94, 0.010, -0.020, 0.970, 10:34:48.961, 1583739288961
114, -27714.20, -32914.30, -21927.89, -17636.53, -21803.34, -22235.78, -25247.21, -24444.69, 0.000, 0.000, 0.000, 10:34:48.962, 1583739288962
115, -28327.57, -32963.03, -22089.00, -17836.18, -22603.69, -22456.73, -25570.08, -24832.65, 0.000, 0.000, 0.000, 10:34:48.962, 1583739288962
116, -28591.95, -32972.38, -22180.91, -17930.77, -22993.46, -22537.87, -25674.38, -25038.07, 0.000, 0.000, 0.000, 10:34:48.962, 1583739288962
117, -28080.52, -32915.00, -22063.70, -17805.38, -22400.18, -22414.60, -25376.96, -24752.81, 0.000, 0.000, 0.000, 10:34:48.962, 1583739288962
118, -27463.88, -32857.11, -21896.97, -17652.76, -21630.72, -22279.59, -25075.46, -24361.84, 0.000, 0.000, 0.000, 10:34:48.962, 1583739288962
119, -27711.87, -32908.88, -21930.90, -17638.61, -21794.67, -22232.88, -25245.18, -24442.03, 0.000, 0.000, 0.000, 10:34:48.962, 1583739288962
120, -28329.99, -32963.59, -22100.40, -17841.29, -22599.13, -22456.53, -25572.94, -24832.50, 0.000, 0.000, 0.000, 10:34:48.962, 1583739288962
121, -28600.31, -32979.59, -22187.75, -17934.84, -22992.81, -22540.24, -25678.96, -25040.59, 0.000, 0.000, 0.000, 10:34:48.962, 1583739288962
122, -28091.83, -32922.49, -22071.16, -17810.29, -22408.18, -22420.45, -25383.98, -24758.78, 0.000, 0.000, 0.000, 10:34:48.963, 1583739288963
123, -27473.58, -32869.98, -21905.31, -17665.61, -21640.11, -22294.01, -25086.72, -24373.71, 0.004, -0.016, 0.968, 10:34:48.963, 1583739288963
124, -27712.52, -32919.22, -21930.73, -17650.21, -21797.26, -22246.42, -25252.55, -24452.09, 0.000, 0.000, 0.000, 10:34:48.963, 1583739288963
125, -28325.09, -32964.33, -22097.45, -17845.61, -22600.16, -22465.49, -25576.63, -24837.57, 0.000, 0.000, 0.000, 10:34:48.963, 1583739288963
126, -28596.96, -32980.09, -22191.06, -17940.65, -23000.71, -22550.38, -25683.58, -25046.09, 0.000, 0.000, 0.000, 10:34:48.963, 1583739288963
127, -28094.87, -32920.25, -22070.36, -17815.70, -22415.13, -22427.20, -25388.38, -24766.27, 0.000, 0.000, 0.000, 10:34:48.963, 1583739288963
128, -27478.92, -32860.89, -21911.35, -17672.67, -21646.48, -22302.28, -25090.30, -24381.93, 0.000, 0.000, 0.000, 10:34:48.963, 1583739288963
129, -27714.17, -32916.00, -21930.14, -17649.92, -21793.38, -22248.30, -25248.26, -24452.94, 0.000, 0.000, 0.000, 10:34:48.963, 1583739288963
130, -28326.03, -32967.10, -22094.45, -17845.74, -22593.25, -22466.99, -25572.59, -24838.60, 0.000, 0.000, 0.000, 10:34:48.963, 1583739288963
131, -28599.30, -32976.85, -22199.75, -17953.30, -23007.16, -22559.88, -25690.22, -25053.67, 0.000, 0.000, 0.000, 10:34:48.963, 1583739288963
132, -28098.15, -32920.41, -22083.88, -17830.43, -22429.44, -22437.98, -25397.06, -24776.04, 0.000, 0.000, 0.000, 10:34:48.964, 1583739288964
133, -27475.97, -32858.47, -21905.36, -17666.17, -21644.78, -22296.54, -25084.47, -24376.39, 0.004, -0.020, 0.964, 10:34:48.964, 1583739288964
134, -27712.16, -32913.75, -21926.97, -17639.26, -21787.05, -22239.65, -25246.63, -24443.93, 0.000, 0.000, 0.000, 10:34:48.964, 1583739288964
135, -28327.71, -32965.78, -22092.24, -17834.90, -22586.37, -22456.55, -25569.88, -24826.80, 0.000, 0.000, 0.000, 10:34:48.964, 1583739288964
136, -28602.05, -32976.82, -22185.92, -17936.54, -22994.27, -22544.04, -25679.07, -25038.45, 0.000, 0.000, 0.000, 10:34:48.964, 1583739288964
137, -28098.02, -32913.30, -22056.50, -17805.64, -22410.89, -22413.52, -25379.11, -24755.49, 0.000, 0.000, 0.000, 10:34:48.965, 1583739288965
138, -27471.05, -32859.41, -21888.32, -17654.05, -21633.76, -22278.92, -25070.83, -24359.96, 0.000, 0.000, 0.000, 10:34:48.965, 1583739288965
139, -27696.98, -32910.62, -21907.28, -17625.76, -21763.42, -22220.31, -25226.20, -24423.95, 0.000, 0.000, 0.000, 10:34:48.965, 1583739288965
140, -28308.88, -32956.59, -22073.49, -17822.07, -22563.66, -22438.74, -25550.44, -24808.96, 0.000, 0.000, 0.000, 10:34:48.965, 1583739288965
141, -28592.26, -32968.55, -22176.21, -17931.89, -22989.24, -22537.84, -25670.42, -25033.19, 0.000, 0.000, 0.000, 10:34:48.965, 1583739288965
142, -28099.49, -32910.48, -22060.41, -17811.43, -22419.27, -22418.44, -25380.58, -24761.62, 0.000, 0.000, 0.000, 10:34:48.965, 1583739288965
143, -27466.25, -32847.27, -21891.37, -17657.30, -21633.34, -22284.89, -25067.97, -24363.67, 0.004, -0.022, 0.964, 10:34:48.965, 1583739288965
144, -27687.19, -32902.15, -21911.28, -17633.38, -21762.51, -22229.19, -25222.54, -24428.64, 0.000, 0.000, 0.000, 10:34:48.966, 1583739288966
145, -28305.89, -32956.46, -22080.48, -17834.10, -22562.81, -22449.42, -25553.43, -24817.68, 0.000, 0.000, 0.000, 10:34:48.966, 1583739288966
146, -28587.90, -32967.35, -22184.35, -17945.86, -22988.34, -22548.53, -25674.53, -25039.92, 0.000, 0.000, 0.000, 10:34:48.966, 1583739288966
147, -28096.79, -32910.95, -22072.48, -17828.58, -22426.69, -22430.62, -25386.55, -24771.63, 0.000, 0.000, 0.000, 10:34:48.966, 1583739288966
148, -27461.64, -32857.42, -21903.41, -17674.15, -21643.55, -22296.89, -25075.84, -24374.44, 0.000, 0.000, 0.000, 10:34:48.966, 1583739288966
149, -27674.90, -32901.66, -21922.01, -17643.59, -21767.13, -22235.11, -25225.15, -24432.60, 0.000, 0.000, 0.000, 10:34:48.966, 1583739288966
150, -28294.76, -32952.91, -22089.27, -17835.26, -22565.40, -22450.85, -25553.83, -24817.23, 0.000, 0.000, 0.000, 10:34:48.966, 1583739288966
151, -28586.14, -32970.03, -22181.11, -17940.09, -22987.94, -22543.92, -25670.49, -25037.51, 0.000, 0.000, 0.000, 10:34:48.967, 1583739288967
152, -28104.05, -32916.54, -22063.27, -17811.93, -22423.81, -22418.93, -25384.27, -24766.60, 0.000, 0.000, 0.000, 10:34:48.967, 1583739288967
153, -27468.53, -32861.82, -21895.37, -17655.82, -21637.18, -22284.00, -25072.00, -24367.47, 0.000, -0.020, 0.968, 10:34:48.967, 1583739288967
154, -27680.49, -32911.60, -21917.92, -17631.26, -21758.24, -22225.70, -25222.74, -24425.67, 0.000, 0.000, 0.000, 10:34:48.967, 1583739288967
155, -28303.70, -32964.93, -22089.11, -17833.94, -22558.74, -22448.71, -25556.87, -24816.43, 0.000, 0.000, 0.000, 10:34:48.967, 1583739288967
156, -28594.50, -32976.55, -22186.81, -17943.98, -22987.56, -22548.80, -25677.66, -25041.40, 0.000, 0.000, 0.000, 10:34:48.967, 1583739288967
157, -28111.56, -32918.35, -22073.71, -17824.20, -22436.70, -22429.39, -25397.39, -24776.55, 0.000, 0.000, 0.000, 10:34:48.968, 1583739288968
158, -27475.12, -32861.96, -21907.21, -17669.95, -21650.66, -22298.21, -25087.71, -24380.39, 0.000, 0.000, 0.000, 10:34:48.968, 1583739288968
159, -27685.25, -32918.87, -21933.01, -17645.05, -21771.96, -22241.86, -25239.63, -24439.17, 0.000, 0.000, 0.000, 10:34:48.968, 1583739288968
160, -28305.33, -32975.75, -22100.15, -17847.29, -22572.27, -22460.08, -25571.00, -24826.48, 0.000, 0.000, 0.000, 10:34:48.968, 1583739288968
161, -28598.81, -32985.16, -22198.95, -17954.46, -23004.62, -22557.69, -25695.07, -25052.71, 0.000, 0.000, 0.000, 10:34:48.968, 1583739288968
162, -28112.59, -32920.95, -22078.85, -17818.01, -22445.08, -22427.31, -25403.65, -24779.59, 0.000, 0.000, 0.000, 10:34:48.968, 1583739288968
163, -27471.97, -32868.48, -21910.21, -17656.67, -21653.05, -22291.06, -25086.81, -24376.01, 0.000, -0.020, 0.972, 10:34:48.968, 1583739288968
164, -27672.46, -32915.04, -21914.74, -17621.80, -21756.49, -22224.05, -25226.45, -24422.12, 0.000, 0.000, 0.000, 10:34:48.969, 1583739288969
165, -28293.51, -32963.88, -22074.49, -17816.33, -22545.91, -22435.72, -25550.70, -24803.06, 0.000, 0.000, 0.000, 10:34:48.969, 1583739288969
166, -28594.65, -32977.00, -22181.69, -17936.60, -22987.81, -22541.31, -25678.62, -25035.38, 0.000, 0.000, 0.000, 10:34:48.969, 1583739288969
167, -28116.08, -32916.43, -22073.06, -17817.80, -22444.30, -22421.55, -25396.36, -24773.58, 0.000, 0.000, 0.000, 10:34:48.969, 1583739288969
168, -27473.78, -32859.16, -21895.19, -17662.06, -21646.70, -22288.15, -25076.31, -24371.07, 0.000, 0.000, 0.000, 10:34:48.969, 1583739288969
169, -27676.58, -32916.56, -21908.31, -17633.54, -21746.55, -22225.72, -25218.40, -24420.42, 0.000, 0.000, 0.000, 10:34:48.969, 1583739288969
170, -28296.12, -32962.03, -22076.64, -17824.22, -22541.46, -22437.04, -25548.65, -24804.60, 0.000, 0.000, 0.000, 10:34:48.969, 1583739288969
171, -28595.17, -32971.30, -22179.17, -17925.63, -22984.99, -22533.35, -25674.29, -25032.10, 0.000, 0.000, 0.000, 10:34:48.969, 1583739288969
172, -28125.13, -32922.62, -22069.31, -17808.84, -22446.87, -22415.31, -25396.65, -24774.54, 0.000, 0.000, 0.000, 10:34:48.970, 1583739288970
173, -27473.91, -32863.88, -21893.24, -17653.23, -21649.32, -22281.25, -25075.17, -24370.06, -0.002, -0.022, 0.966, 10:34:48.970, 1583739288970
174, -27669.07, -32915.51, -21910.19, -17623.12, -21746.93, -22219.78, -25217.91, -24416.80, 0.000, 0.000, 0.000, 10:34:48.970, 1583739288970
175, -28290.00, -32965.27, -22070.76, -17814.47, -22537.98, -22431.27, -25543.71, -24798.79, 0.000, 0.000, 0.000, 10:34:48.970, 1583739288970
176, -28594.50, -32975.04, -22176.10, -17933.72, -22986.42, -22537.40, -25672.12, -25032.46, 0.000, 0.000, 0.000, 10:34:48.970, 1583739288970
177, -28128.31, -32922.31, -22078.96, -17829.03, -22456.89, -22427.05, -25401.17, -24782.29, 0.000, 0.000, 0.000, 10:34:48.971, 1583739288971
178, -27484.40, -32866.81, -21904.55, -17678.29, -21656.04, -22297.81, -25081.94, -24381.71, 0.000, 0.000, 0.000, 10:34:48.971, 1583739288971
179, -27675.86, -32915.34, -21916.60, -17641.02, -21745.97, -22232.18, -25220.99, -24425.36, 0.000, 0.000, 0.000, 10:34:48.971, 1583739288971
180, -28289.42, -32962.63, -22082.36, -17827.91, -22535.56, -22442.07, -25550.08, -24806.93, 0.000, 0.000, 0.000, 10:34:48.971, 1583739288971
181, -28598.23, -32975.10, -22185.25, -17932.29, -22986.91, -22543.46, -25679.85, -25039.16, 0.000, 0.000, 0.000, 10:34:48.971, 1583739288971
182, -28140.94, -32921.66, -22074.72, -17811.12, -22455.25, -22421.44, -25402.00, -24784.71, 0.000, 0.000, 0.000, 10:34:48.971, 1583739288971
183, -27490.72, -32864.66, -21897.09, -17655.22, -21653.47, -22286.19, -25078.10, -24378.76, 0.002, -0.026, 0.966, 10:34:48.971, 1583739288971
184, -27674.21, -32918.38, -21907.35, -17625.85, -21735.62, -22220.14, -25213.79, -24417.80, 0.000, 0.000, 0.000, 10:34:48.972, 1583739288972
185, -28290.40, -32969.56, -22076.64, -17823.04, -22529.89, -22433.80, -25545.45, -24801.47, 0.000, 0.000, 0.000, 10:34:48.972, 1583739288972
186, -28599.91, -32981.05, -22184.98, -17938.82, -22988.37, -22541.49, -25678.85, -25036.54, 0.000, 0.000, 0.000, 10:34:48.972, 1583739288972
187, -28142.32, -32924.72, -22072.95, -17816.02, -22458.79, -22419.00, -25402.13, -24781.91, 0.000, 0.000, 0.000, 10:34:48.972, 1583739288972
188, -27488.64, -32864.24, -21900.95, -17661.74, -21658.79, -22286.74, -25078.28, -24374.89, 0.000, 0.000, 0.000, 10:34:48.972, 1583739288972
189, -27663.84, -32909.57, -21906.32, -17621.36, -21735.10, -22218.21, -25211.27, -24410.59, 0.000, 0.000, 0.000, 10:34:48.972, 1583739288972
190, -28278.89, -32959.43, -22071.38, -17808.77, -22524.43, -22427.67, -25541.58, -24792.76, 0.000, 0.000, 0.000, 10:34:48.972, 1583739288972
191, -28592.06, -32973.98, -22185.31, -17934.28, -22990.87, -22542.00, -25679.49, -25035.83, 0.000, 0.000, 0.000, 10:34:48.973, 1583739288973
192, -28140.40, -32918.71, -22080.77, -17821.49, -22474.12, -22426.78, -25410.78, -24789.83, 0.000, 0.000, 0.000, 10:34:48.973, 1583739288973
193, -27484.08, -32853.09, -21905.36, -17669.10, -21668.63, -22296.54, -25086.17, -24384.37, 0.000, 0.000, 0.000, 10:34:48.973, 1583739288973
194, -27655.79, -32905.70, -21914.03, -17631.21, -21736.74, -22228.05, -25217.37, -24417.07, 0.002, -0.024, 0.972, 10:34:48.973, 1583739288973
195, -28273.66, -32964.51, -22075.50, -17818.12, -22521.48, -22432.66, -25544.06, -24795.24, 0.000, 0.000, 0.000, 10:34:48.973, 1583739288973
196, -28594.14, -32980.09, -22186.10, -17938.93, -22988.59, -22544.64, -25683.07, -25037.84, 0.000, 0.000, 0.000, 10:34:48.973, 1583739288973
197, -28143.44, -32918.66, -22078.43, -17822.43, -22470.37, -22424.37, -25408.93, -24789.78, 0.000, 0.000, 0.000, 10:34:48.974, 1583739288974
198, -27490.05, -32859.34, -21910.34, -17679.71, -21671.60, -22299.87, -25085.94, -24387.76, 0.000, 0.000, 0.000, 10:34:48.974, 1583739288974
199, -27663.90, -32920.18, -21914.19, -17644.00, -21735.42, -22231.80, -25212.45, -24419.93, 0.000, 0.000, 0.000, 10:34:48.974, 1583739288974
200, -28280.39, -32970.77, -22068.90, -17816.24, -22516.86, -22429.73, -25537.96, -24794.81, 0.000, 0.000, 0.000, 10:34:48.974, 1583739288974
201, -28601.40, -32982.95, -22178.56, -17941.54, -22990.00, -22545.67, -25679.07, -25040.57, 0.000, 0.000, 0.000, 10:34:48.974, 1583739288974
202, -28161.34, -32933.93, -22087.57, -17839.26, -22491.22, -22435.88, -25417.64, -24803.93, 0.000, 0.000, 0.000, 10:34:48.974, 1583739288974
203, -27500.67, -32873.45, -21920.49, -17684.41, -21688.34, -22305.77, -25094.21, -24397.71, 0.000, 0.000, 0.000, 10:34:48.975, 1583739288975
204, -27658.63, -32910.51, -21917.47, -17632.13, -21739.28, -22227.04, -25217.66, -24420.29, 0.002, -0.028, 0.964, 10:34:48.975, 1583739288975
205, -28274.02, -32966.88, -22080.66, -17816.11, -22519.56, -22432.63, -25547.80, -24798.79, 0.000, 0.000, 0.000, 10:34:48.975, 1583739288975
206, -28600.42, -32989.95, -22187.91, -17942.21, -22996.72, -22549.13, -25686.20, -25044.97, 0.000, 0.000, 0.000, 10:34:48.975, 1583739288975
207, -28167.82, -32940.75, -22082.23, -17826.16, -22491.06, -22430.47, -25420.26, -24803.64, 0.000, 0.000, 0.000, 10:34:48.975, 1583739288975
208, -27504.54, -32878.12, -21904.89, -17666.73, -21676.21, -22294.54, -25089.21, -24390.76, 0.000, 0.000, 0.000, 10:34:48.975, 1583739288975
209, -27660.78, -32924.86, -21911.19, -17628.80, -21727.73, -22223.65, -25213.26, -24415.50, 0.000, 0.000, 0.000, 10:34:48.975, 1583739288975
210, -28282.04, -32977.16, -22072.21, -17813.36, -22510.80, -22427.54, -25542.01, -24793.13, 0.000, 0.000, 0.000, 10:34:49.434, 1583739289434
211, -28606.34, -32986.19, -22183.03, -17941.12, -22990.89, -22546.29, -25683.07, -25041.37, 0.000, 0.000, 0.000, 10:34:49.434, 1583739289434
212, -28168.54, -32933.06, -22084.55, -17834.72, -22494.97, -22434.56, -25423.41, -24806.93, 0.000, 0.000, 0.000, 10:34:49.435, 1583739289435
213, -27503.55, -32869.38, -21914.30, -17682.29, -21686.33, -22306.32, -25095.55, -24397.80, 0.000, 0.000, 0.000, 10:34:49.435, 1583739289435
214, -27651.10, -32909.84, -21910.56, -17629.02, -21725.13, -22224.07, -25209.62, -24411.66, 0.004, -0.022, 0.966, 10:34:49.435, 1583739289435
215, -28266.95, -32952.86, -22064.03, -17809.85, -22499.24, -22423.13, -25536.02, -24786.79, 0.000, 0.000, 0.000, 10:34:49.435, 1583739289435
216, -28596.57, -32974.99, -22175.30, -17933.97, -22985.26, -22541.09, -25682.36, -25036.66, 0.000, 0.000, 0.000, 10:34:49.435, 1583739289435
217, -28163.24, -32933.86, -22076.24, -17822.19, -22495.00, -22425.44, -25422.45, -24802.01, 0.000, 0.000, 0.000, 10:34:49.435, 1583739289435
218, -27495.71, -32869.02, -21901.58, -17668.83, -21678.58, -22294.72, -25086.46, -24389.46, 0.000, 0.000, 0.000, 10:34:49.435, 1583739289435
219, -27642.20, -32911.82, -21906.36, -17623.59, -21717.56, -22218.88, -25203.49, -24405.36, 0.000, 0.000, 0.000, 10:34:49.435, 1583739289435
220, -28262.95, -32964.95, -22071.47, -17812.66, -22501.68, -22423.76, -25535.93, -24784.20, 0.000, 0.000, 0.000, 10:34:49.436, 1583739289436
221, -28598.23, -32976.85, -22182.50, -17939.80, -22994.11, -22544.62, -25682.58, -25037.35, 0.000, 0.000, 0.000, 10:34:49.439, 1583739289439
222, -28170.75, -32926.11, -22079.23, -17827.64, -22504.34, -22427.38, -25423.86, -24804.22, 0.000, 0.000, 0.000, 10:34:49.439, 1583739289439
223, -27498.97, -32854.58, -21900.48, -17674.51, -21682.22, -22295.33, -25084.67, -24390.36, 0.000, 0.000, 0.000, 10:34:49.440, 1583739289440
224, -27644.28, -32900.67, -21903.44, -17629.85, -21716.04, -22221.30, -25201.68, -24407.75, 0.000, -0.018, 0.968, 10:34:49.440, 1583739289440
225, -28257.21, -32952.08, -22061.75, -17798.56, -22492.92, -22413.32, -25528.98, -24778.67, 0.000, 0.000, 0.000, 10:34:49.440, 1583739289440
226, -28594.72, -32970.66, -22177.85, -17930.72, -22987.74, -22537.20, -25680.28, -25036.43, 0.000, 0.000, 0.000, 10:34:49.440, 1583739289440
227, -28175.38, -32927.70, -22082.58, -17829.70, -22506.28, -22427.45, -25428.89, -24810.59, 0.000, 0.000, 0.000, 10:34:49.440, 1583739289440
228, -27502.48, -32865.80, -21906.38, -17674.73, -21685.57, -22295.28, -25090.86, -24395.16, 0.000, 0.000, 0.000, 10:34:49.440, 1583739289440
229, -27638.45, -32916.05, -21900.55, -17621.87, -21710.96, -22214.15, -25201.08, -24403.25, 0.000, 0.000, 0.000, 10:34:49.440, 1583739289440
230, -28252.36, -32965.92, -22053.17, -17800.48, -22483.37, -22411.36, -25528.91, -24775.83, 0.000, 0.000, 0.000, 10:34:49.440, 1583739289440
231, -28595.95, -32980.49, -22175.08, -17939.60, -22988.01, -22544.93, -25685.19, -25039.45, 0.000, 0.000, 0.000, 10:34:49.441, 1583739289441
232, -28177.19, -32928.90, -22083.34, -17821.07, -22511.25, -22426.82, -25431.14, -24810.59, 0.000, 0.000, 0.000, 10:34:49.441, 1583739289441
233, -27499.80, -32862.00, -21899.61, -17659.51, -21687.65, -22290.90, -25087.15, -24392.03, 0.000, 0.000, 0.000, 10:34:49.441, 1583739289441
234, -27628.37, -32898.23, -21886.85, -17610.60, -21700.46, -22210.86, -25192.20, -24398.40, 0.000, -0.020, 0.964, 10:34:49.441, 1583739289441
235, -28248.33, -32952.84, -22054.60, -17799.61, -22481.65, -22415.49, -25527.57, -24777.62, 0.000, 0.000, 0.000, 10:34:49.441, 1583739289441
236, -28594.96, -32973.94, -22177.98, -17935.82, -22989.04, -22544.46, -25682.82, -25038.07, 0.000, 0.000, 0.000, 10:34:49.441, 1583739289441
237, -28188.41, -32930.42, -22089.27, -17836.71, -22522.49, -22437.48, -25435.77, -24819.78, 0.000, 0.000, 0.000, 10:34:49.441, 1583739289441
238, -27508.07, -32864.08, -21909.27, -17684.92, -21696.30, -22306.82, -25096.18, -24404.93, 0.000, 0.000, 0.000, 10:34:49.441, 1583739289441
239, -27634.49, -32910.57, -21903.23, -17630.00, -21707.12, -22223.65, -25203.51, -24408.30, 0.000, 0.000, 0.000, 10:34:49.441, 1583739289441
240, -28247.49, -32960.08, -22062.76, -17800.24, -22482.17, -22416.16, -25533.00, -24778.85, 0.000, 0.000, 0.000, 10:34:49.442, 1583739289442
241, -28593.47, -32974.16, -22182.38, -17936.71, -22992.14, -22545.22, -25684.86, -25037.95, 0.000, 0.000, 0.000, 10:34:49.442, 1583739289442
242, -28189.28, -32928.30, -22090.85, -17834.30, -22526.74, -22433.71, -25436.37, -24817.79, 0.000, 0.000, 0.000, 10:34:49.442, 1583739289442
243, -27510.88, -32871.14, -21913.40, -17682.06, -21702.34, -22305.36, -25098.71, -24405.22, 0.000, 0.000, 0.000, 10:34:49.442, 1583739289442
244, -27634.47, -32914.20, -21906.21, -17633.71, -21709.85, -22224.81, -25204.32, -24407.86, 0.006, -0.018, 0.960, 10:34:49.442, 1583739289442
245, -28252.11, -32960.13, -22065.19, -17803.81, -22478.61, -22414.11, -25533.11, -24775.59, 0.000, 0.000, 0.000, 10:34:49.442, 1583739289442
246, -28601.94, -32972.20, -22180.71, -17928.87, -22987.94, -22538.60, -25684.63, -25033.28, 0.000, 0.000, 0.000, 10:34:49.442, 1583739289442
247, -28195.41, -32927.23, -22090.47, -17831.15, -22531.99, -22430.22, -25437.22, -24818.84, 0.000, 0.000, 0.000, 10:34:49.442, 1583739289442
248, -27509.79, -32862.11, -21914.81, -17685.17, -21708.28, -22303.75, -25095.51, -24405.67, 0.000, 0.000, 0.000, 10:34:49.442, 1583739289442
249, -27626.06, -32903.31, -21900.35, -17632.44, -21702.34, -22221.63, -25194.60, -24404.17, 0.000, 0.000, 0.000, 10:34:49.443, 1583739289443
250, -28245.25, -32957.18, -22052.88, -17792.52, -22467.44, -22407.29, -25521.38, -24769.13, 0.000, 0.000, 0.000, 10:34:49.443, 1583739289443
251, -28598.59, -32975.13, -22178.67, -17924.51, -22988.25, -22538.52, -25680.63, -25033.53, 0.000, 0.000, 0.000, 10:34:49.443, 1583739289443
252, -28199.99, -32928.34, -22083.17, -17822.34, -22532.73, -22429.68, -25434.94, -24820.92, 0.000, 0.000, 0.000, 10:34:49.443, 1583739289443
253, -27516.87, -32866.72, -21905.11, -17667.58, -21703.43, -22299.13, -25090.23, -24404.33, 0.000, 0.000, 0.000, 10:34:49.443, 1583739289443
254, -27623.09, -32907.15, -21892.57, -17612.86, -21691.94, -22212.02, -25184.16, -24396.59, 0.006, -0.016, 0.962, 10:34:49.443, 1583739289443
255, -28245.12, -32966.61, -22048.05, -17793.24, -22459.81, -22406.93, -25514.83, -24768.84, 0.000, 0.000, 0.000, 10:34:49.443, 1583739289443
0, -28607.59, -32983.24, -22174.63, -17935.24, -22984.39, -22543.92, -25676.45, -25038.54, 0.000, 0.000, 0.000, 10:34:49.443, 1583739289443
1, -28210.02, -32933.04, -22088.42, -17836.15, -22536.06, -22435.63, -25436.15, -24828.61, 0.000, 0.000, 0.000, 10:34:49.443, 1583739289443
2, -27522.86, -32869.16, -21909.09, -17681.03, -21706.92, -22303.55, -25091.78, -24408.82, 0.000, 0.000, 0.000, 10:34:49.444, 1583739289444
3, -27631.05, -32913.17, -21901.71, -17625.02, -21696.86, -22217.25, -25187.15, -24401.26, 0.000, 0.000, 0.000, 10:34:49.444, 1583739289444
4, -28246.10, -32966.23, -22061.86, -17800.19, -22469.29, -22409.77, -25519.79, -24773.24, 0.000, 0.000, 0.000, 10:34:49.444, 1583739289444
5, -28605.63, -32988.40, -22181.29, -17943.33, -22997.75, -22547.93, -25684.63, -25045.44, 0.000, 0.000, 0.000, 10:34:49.444, 1583739289444
6, -28217.27, -32941.87, -22089.09, -17836.83, -22549.62, -22435.09, -25444.67, -24833.55, 0.000, 0.000, 0.000, 10:34:49.444, 1583739289444
7, -27531.85, -32873.13, -21912.78, -17679.25, -21715.28, -22302.68, -25097.59, -24411.10, 0.000, 0.000, 0.000, 10:34:49.444, 1583739289444
8, -27632.68, -32917.68, -21906.05, -17627.35, -21697.29, -22219.51, -25189.72, -24400.64, 0.002, -0.020, 0.966, 10:34:49.445, 1583739289445
9, -28249.70, -32972.31, -22056.21, -17802.67, -22460.37, -22410.48, -25514.98, -24770.85, 0.000, 0.000, 0.000, 10:34:49.445, 1583739289445
10, -28609.27, -32986.39, -22167.36, -17934.79, -22980.03, -22541.71, -25671.40, -25036.50, 0.000, 0.000, 0.000, 10:34:49.445, 1583739289445
11, -28220.37, -32941.53, -22086.52, -17829.27, -22541.98, -22430.20, -25437.49, -24826.91, 0.000, 0.000, 0.000, 10:34:49.445, 1583739289445
12, -27528.25, -32875.37, -21908.38, -17668.96, -21705.82, -22293.45, -25088.83, -24401.02, 0.000, 0.000, 0.000, 10:34:49.445, 1583739289445
13, -27622.38, -32912.07, -21889.33, -17609.38, -21678.87, -22202.26, -25176.47, -24384.17, 0.000, 0.000, 0.000, 10:34:49.445, 1583739289445
14, -28239.51, -32965.65, -22049.06, -17790.74, -22449.85, -22396.20, -25511.07, -24755.96, 0.000, 0.000, 0.000, 10:34:49.445, 1583739289445
15, -28601.13, -32976.15, -22177.89, -17937.43, -22987.45, -22538.54, -25676.48, -25030.47, 0.000, 0.000, 0.000, 10:34:49.445, 1583739289445
16, -28219.72, -32934.33, -22089.69, -17834.32, -22550.83, -22429.66, -25438.30, -24825.77, 0.000, 0.000, 0.000, 10:34:49.446, 1583739289446
17, -27527.00, -32868.39, -21902.29, -17676.25, -21708.21, -22296.11, -25085.38, -24401.46, 0.000, 0.000, 0.000, 10:34:49.446, 1583739289446
18, -27615.82, -32905.01, -21885.75, -17616.50, -21674.04, -22206.57, -25173.12, -24383.67, 0.006, -0.024, 0.972, 10:34:49.446, 1583739289446
19, -28230.23, -32963.28, -22044.65, -17785.30, -22438.56, -22396.16, -25506.51, -24752.81, 0.000, 0.000, 0.000, 10:34:49.446, 1583739289446
20, -28604.89, -32988.09, -22175.12, -17940.16, -22983.40, -22546.03, -25681.39, -25035.88, 0.000, 0.000, 0.000, 10:34:49.446, 1583739289446
21, -28226.61, -32933.77, -22095.68, -17842.57, -22554.50, -22438.16, -25448.78, -24835.16, 0.000, 0.000, 0.000, 10:34:49.446, 1583739289446
22, -27531.13, -32862.59, -21908.60, -17675.13, -21708.93, -22298.46, -25092.34, -24406.58, 0.000, 0.000, 0.000, 10:34:49.446, 1583739289446
23, -27617.52, -32906.35, -21892.95, -17622.45, -21676.36, -22212.25, -25176.91, -24387.92, 0.000, 0.000, 0.000, 10:34:49.446, 1583739289446
24, -28232.96, -32960.35, -22049.75, -17794.76, -22439.05, -22399.44, -25508.75, -24755.67, 0.000, 0.000, 0.000, 10:34:49.446, 1583739289446
25, -28602.77, -32973.61, -22176.93, -17940.49, -22982.31, -22542.61, -25678.35, -25034.04, 0.000, 0.000, 0.000, 10:34:49.447, 1583739289447
26, -28231.39, -32935.32, -22096.78, -17842.62, -22560.11, -22434.40, -25448.29, -24837.01, 0.000, 0.000, 0.000, 10:34:49.447, 1583739289447
27, -27535.07, -32870.07, -21908.15, -17674.35, -21715.57, -22294.01, -25091.60, -24406.52, 0.000, 0.000, 0.000, 10:34:49.447, 1583739289447
28, -27617.68, -32911.16, -21896.19, -17621.29, -21679.38, -22211.11, -25179.78, -24387.96, 0.004, -0.020, 0.972, 10:34:49.447, 1583739289447
29, -28232.53, -32961.65, -22054.89, -17798.18, -22442.85, -22403.91, -25515.19, -24759.45, 0.000, 0.000, 0.000, 10:34:49.447, 1583739289447
30, -28604.91, -32981.32, -22178.79, -17939.62, -22988.57, -22545.98, -25683.61, -25036.70, 0.000, 0.000, 0.000, 10:34:49.447, 1583739289447
31, -28236.42, -32939.92, -22102.50, -17844.34, -22573.74, -22441.08, -25458.50, -24842.69, 0.000, 0.000, 0.000, 10:34:49.447, 1583739289447
32, -27541.64, -32871.05, -21926.46, -17684.63, -21733.96, -22308.83, -25108.52, -24418.10, 0.000, 0.000, 0.000, 10:34:49.447, 1583739289447
33, -27617.55, -32910.62, -21914.14, -17625.18, -21686.47, -22219.44, -25187.15, -24392.26, 0.000, 0.000, 0.000, 10:34:49.448, 1583739289448
34, -28230.68, -32967.39, -22055.27, -17794.07, -22436.79, -22402.30, -25510.02, -24756.03, 0.000, 0.000, 0.000, 10:34:49.448, 1583739289448
35, -28606.03, -32974.72, -22175.95, -17939.38, -22983.67, -22545.91, -25679.38, -25033.66, 0.000, 0.000, 0.000, 10:34:49.448, 1583739289448
36, -28240.18, -32928.50, -22102.01, -17848.27, -22573.36, -22442.58, -25456.33, -24842.78, 0.000, 0.000, 0.000, 10:34:49.448, 1583739289448
37, -27538.18, -32867.39, -21908.89, -17680.14, -21722.47, -22300.94, -25095.49, -24412.24, 0.000, 0.000, 0.000, 10:34:49.448, 1583739289448
38, -27606.91, -32902.77, -21883.16, -17618.18, -21666.08, -22208.27, -25170.32, -24383.99, 0.000, 0.000, 0.000, 10:34:49.448, 1583739289448
39, -28218.34, -32958.59, -22038.01, -17788.61, -22422.67, -22391.02, -25502.38, -24747.20, -0.002, -0.022, 0.976, 10:34:49.448, 1583739289448
40, -28595.57, -32978.97, -22169.33, -17938.50, -22978.31, -22540.08, -25677.39, -25030.29, 0.000, 0.000, 0.000, 10:34:49.448, 1583739289448
41, -28235.55, -32934.29, -22094.05, -17847.24, -22573.50, -22436.37, -25454.10, -24841.86, 0.000, 0.000, 0.000, 10:34:49.448, 1583739289448
42, -27538.60, -32867.48, -21910.74, -17687.98, -21726.68, -22304.85, -25099.49, -24417.38, 0.000, 0.000, 0.000, 10:34:49.448, 1583739289448
43, -27606.13, -32906.19, -21887.86, -17614.45, -21666.01, -22208.04, -25172.36, -24383.34, 0.000, 0.000, 0.000, 10:34:49.448, 1583739289448
44, -28220.06, -32962.59, -22043.89, -17782.20, -22421.79, -22392.58, -25507.07, -24747.67, 0.000, 0.000, 0.000, 10:34:49.449, 1583739289449
45, -28599.97, -32981.74, -22178.16, -17934.41, -22982.82, -22543.61, -25685.26, -25033.89, 0.000, 0.000, 0.000, 10:34:49.449, 1583739289449
46, -28244.15, -32930.98, -22103.82, -17844.78, -22585.16, -22440.64, -25466.30, -24848.68, 0.000, 0.000, 0.000, 10:34:49.449, 1583739289449
47, -27544.25, -32863.03, -21918.48, -17690.09, -21740.07, -22311.15, -25107.74, -24424.33, 0.000, 0.000, 0.000, 10:34:49.449, 1583739289449
48, -27601.77, -32901.99, -21899.84, -17631.44, -21676.61, -22220.56, -25179.71, -24390.31, 0.000, 0.000, 0.000, 10:34:49.449, 1583739289449
49, -28219.57, -32961.80, -22055.18, -17800.71, -22432.19, -22404.14, -25515.12, -24755.81, 0.000, -0.018, 0.974, 10:34:49.449, 1583739289449
50, -28605.90, -32986.23, -22183.08, -17949.95, -22993.04, -22553.98, -25689.98, -25041.13, 0.000, 0.000, 0.000, 10:34:49.449, 1583739289449
51, -28254.15, -32942.34, -22111.66, -17855.11, -22598.46, -22449.18, -25470.08, -24856.23, 0.000, 0.000, 0.000, 10:34:49.449, 1583739289449
52, -27551.56, -32872.93, -21931.02, -17696.35, -21751.06, -22317.66, -25113.48, -24429.14, 0.000, 0.000, 0.000, 10:34:49.449, 1583739289449
53, -27603.87, -32909.57, -21897.53, -17628.28, -21673.68, -22219.85, -25177.94, -24386.54, 0.000, 0.000, 0.000, 10:34:49.449, 1583739289449
54, -28212.93, -32967.23, -22042.31, -17790.04, -22419.71, -22395.60, -25503.81, -24746.24, 0.000, 0.000, 0.000, 10:34:49.451, 1583739289451
55, -28602.99, -32985.74, -22178.94, -17944.85, -22989.35, -22551.77, -25686.02, -25035.83, 0.000, 0.000, 0.000, 10:34:49.451, 1583739289451
56, -28259.51, -32941.11, -22113.45, -17857.19, -22603.38, -22452.93, -25474.21, -24858.40, 0.000, 0.000, 0.000, 10:34:49.451, 1583739289451
57, -27552.84, -32871.35, -21926.41, -17694.13, -21753.66, -22316.70, -25112.94, -24428.38, 0.000, 0.000, 0.000, 10:34:49.451, 1583739289451
58, -27602.46, -32902.95, -21894.11, -17623.01, -21670.06, -22216.61, -25175.73, -24383.49, 0.000, 0.000, 0.000, 10:34:49.451, 1583739289451
59, -28212.73, -32956.11, -22043.13, -17786.67, -22415.58, -22391.11, -25502.58, -24740.54, -0.004, -0.016, 0.974, 10:34:49.451, 1583739289451
60, -28600.55, -32975.95, -22170.27, -17939.38, -22986.53, -22542.09, -25678.94, -25027.45, 0.000, 0.000, 0.000, 10:34:49.451, 1583739289451
61, -28264.79, -32936.12, -22101.31, -17852.74, -22604.32, -22443.03, -25468.49, -24852.77, 0.000, 0.000, 0.000, 10:34:49.451, 1583739289451
62, -27555.72, -32864.66, -21912.80, -17685.86, -21747.49, -22304.38, -25103.09, -24419.21, 0.000, 0.000, 0.000, 10:34:49.451, 1583739289451
63, -27589.83, -32895.08, -21884.68, -17616.50, -21656.98, -22206.72, -25162.79, -24371.65, 0.000, 0.000, 0.000, 10:34:49.451, 1583739289451
64, -28198.38, -32949.91, -22039.67, -17786.98, -22411.33, -22389.54, -25496.07, -24735.98, 0.000, 0.000, 0.000, 10:34:49.451, 1583739289451
65, -28591.66, -32966.18, -22165.20, -17942.33, -22981.55, -22544.39, -25672.74, -25026.15, 0.000, 0.000, 0.000, 10:34:49.451, 1583739289451
66, -28253.28, -32924.03, -22087.32, -17851.69, -22596.52, -22441.46, -25458.28, -24850.00, 0.000, 0.000, 0.000, 10:34:49.451, 1583739289451
67, -27548.12, -32852.41, -21911.08, -17684.34, -21749.56, -22305.68, -25100.83, -24419.35, 0.000, 0.000, 0.000, 10:34:49.451, 1583739289451
68, -27582.14, -32883.01, -21881.40, -17611.39, -21653.92, -22205.72, -25161.29, -24371.25, 0.000, 0.000, 0.000, 10:34:49.451, 1583739289451
69, -28186.46, -32945.93, -22025.65, -17766.17, -22391.11, -22375.46, -25486.67, -24725.37, 0.004, -0.020, 0.966, 10:34:49.452, 1583739289452
70, -28589.60, -32974.03, -22158.78, -17926.79, -22969.48, -22534.74, -25670.02, -25020.18, 0.000, 0.000, 0.000, 10:34:49.452, 1583739289452
71, -28261.90, -32931.72, -22094.16, -17845.50, -22598.82, -22437.62, -25463.31, -24850.71, 0.000, 0.000, 0.000, 10:34:49.452, 1583739289452
72, -27552.57, -32858.32, -21917.90, -17688.72, -21750.06, -22307.60, -25104.00, -24423.59, 0.000, 0.000, 0.000, 10:34:49.452, 1583739289452
73, -27585.96, -32897.39, -21895.23, -17625.82, -21656.16, -22215.11, -25163.82, -24377.44, 0.000, 0.000, 0.000, 10:34:49.452, 1583739289452
74, -28198.89, -32958.92, -22043.67, -17785.19, -22397.34, -22388.87, -25493.97, -24735.65, 0.000, 0.000, 0.000, 10:34:49.914, 1583739289914
75, -28596.60, -32971.97, -22166.52, -17934.17, -22973.81, -22542.16, -25674.80, -25027.09, 0.000, 0.000, 0.000, 10:34:49.915, 1583739289915
76, -28269.86, -32934.67, -22095.48, -17849.03, -22606.15, -22443.07, -25468.09, -24859.19, 0.000, 0.000, 0.000, 10:34:49.915, 1583739289915
77, -27558.72, -32864.98, -21914.41, -17685.48, -21754.68, -22307.24, -25103.51, -24425.40, 0.000, 0.000, 0.000, 10:34:49.915, 1583739289915
