%OpenBCI Raw EEG Data
%Number of channels = 8
%Sample Rate = 250.0 Hz
%First Column = SampleIndex
%Last Column = Timestamp 
%Other Columns = EEG data in microvolts followed by Accel Data (in G) interleaved with Aux Data
0, 0.00, 0.00, 0.00, 0.00, 0.00, 0.00, 0.00, 0.00, 0.000, 0.000, 0.000, 10:36:23.679, 1583739383679
1, -27586.54, -32285.84, -21616.88, -17256.80, -22053.71, -21903.41, -25000.09, -24124.53, 0.010, -0.016, 0.978, 10:36:24.159, 1583739384159
2, -26791.76, -32189.28, -21410.78, -17093.63, -21140.30, -21799.61, -24573.89, -23676.80, 0.000, 0.000, 0.000, 10:36:24.159, 1583739384159
3, -26407.49, -32165.95, -21280.98, -16975.95, -20594.09, -21717.78, -24408.64, -23408.02, 0.000, 0.000, 0.000, 10:36:24.159, 1583739384159
4, -26956.18, -32243.22, -21398.08, -17063.14, -21162.34, -21775.36, -24725.83, -23680.87, 0.000, 0.000, 0.000, 10:36:24.159, 1583739384159
5, -27632.77, -32304.73, -21609.82, -17281.09, -22067.25, -21932.56, -25072.96, -24119.59, 0.000, 0.000, 0.000, 10:36:24.159, 1583739384159
6, -27586.72, -32284.95, -21625.11, -17274.08, -22061.71, -21911.79, -25007.18, -24129.58, 0.000, 0.000, 0.000, 10:36:24.159, 1583739384159
7, -26798.53, -32194.15, -21426.29, -17099.73, -21154.23, -21802.14, -24584.48, -23681.70, 0.000, 0.000, 0.000, 10:36:24.160, 1583739384160
8, -26401.28, -32160.18, -21285.21, -16963.95, -20594.83, -21704.35, -24407.30, -23397.96, 0.006, -0.014, 0.976, 10:36:24.160, 1583739384160
9, -26950.46, -32237.12, -21402.40, -17055.03, -21162.32, -21767.58, -24726.21, -23672.35, 0.000, 0.000, 0.000, 10:36:24.160, 1583739384160
10, -27631.43, -32298.98, -21607.68, -17264.08, -22064.23, -21922.03, -25069.45, -24109.66, 0.000, 0.000, 0.000, 10:36:24.160, 1583739384160
11, -27587.35, -32279.92, -21617.06, -17254.96, -22057.21, -21900.26, -25001.41, -24120.75, 0.000, 0.000, 0.000, 10:36:24.160, 1583739384160
12, -26794.78, -32186.04, -21419.07, -17095.15, -21154.52, -21800.46, -24581.53, -23679.95, 0.000, 0.000, 0.000, 10:36:24.167, 1583739384167
13, -26406.66, -32165.03, -21293.63, -16981.78, -20605.87, -21721.74, -24416.80, -23413.00, 0.000, 0.000, 0.000, 10:36:24.168, 1583739384168
14, -26950.71, -32242.21, -21404.90, -17066.65, -21166.63, -21779.70, -24730.77, -23683.71, 0.000, 0.000, 0.000, 10:36:24.168, 1583739384168
15, -27632.61, -32306.81, -21610.49, -17265.25, -22070.71, -21928.42, -25076.98, -24117.55, 0.000, 0.000, 0.000, 10:36:24.168, 1583739384168
16, -27588.09, -32281.39, -21618.32, -17255.32, -22062.15, -21901.22, -25006.33, -24122.38, 0.000, 0.000, 0.000, 10:36:24.168, 1583739384168
17, -26795.58, -32183.92, -21416.12, -17096.83, -21153.04, -21796.06, -24578.18, -23677.04, 0.000, 0.000, 0.000, 10:36:24.168, 1583739384168
18, -26404.70, -32161.52, -21281.18, -16977.47, -20599.28, -21712.24, -24406.18, -23404.76, 0.004, -0.014, 0.972, 10:36:24.168, 1583739384168
19, -26947.24, -32236.96, -21393.97, -17054.54, -21155.86, -21764.81, -24717.16, -23669.36, 0.000, 0.000, 0.000, 10:36:24.169, 1583739384169
20, -27623.49, -32294.38, -21597.91, -17263.82, -22056.01, -21916.31, -25059.28, -24100.10, 0.000, 0.000, 0.000, 10:36:24.169, 1583739384169
21, -27589.41, -32278.64, -21613.60, -17257.00, -22060.21, -21896.91, -25000.89, -24115.56, 0.000, 0.000, 0.000, 10:36:24.169, 1583739384169
22, -26794.80, -32184.48, -21415.25, -17089.65, -21151.92, -21787.74, -24573.98, -23668.42, 0.000, 0.000, 0.000, 10:36:24.169, 1583739384169
23, -26395.11, -32158.55, -21281.32, -16970.18, -20592.30, -21702.36, -24397.58, -23392.53, 0.000, 0.000, 0.000, 10:36:24.169, 1583739384169
24, -26935.37, -32232.20, -21397.53, -17060.17, -21149.29, -21763.45, -24710.01, -23661.31, 0.000, 0.000, 0.000, 10:36:24.169, 1583739384169
25, -27615.27, -32290.11, -21602.94, -17268.58, -22051.00, -21916.78, -25053.98, -24095.78, 0.000, 0.000, 0.000, 10:36:24.170, 1583739384170
26, -27580.13, -32269.48, -21609.98, -17257.74, -22055.31, -21892.17, -24989.56, -24108.57, 0.000, 0.000, 0.000, 10:36:24.170, 1583739384170
27, -26790.73, -32177.73, -21411.76, -17102.41, -21154.49, -21794.02, -24569.46, -23670.29, 0.000, 0.000, 0.000, 10:36:24.170, 1583739384170
28, -26391.75, -32151.13, -21283.38, -16983.03, -20597.00, -21712.35, -24400.57, -23397.43, 0.006, -0.014, 0.968, 10:36:24.170, 1583739384170
29, -26933.81, -32226.32, -21402.24, -17067.12, -21153.98, -21772.81, -24717.81, -23668.06, 0.000, 0.000, 0.000, 10:36:24.170, 1583739384170
30, -27612.56, -32281.77, -21607.70, -17276.98, -22060.03, -21928.09, -25063.64, -24106.06, 0.000, 0.000, 0.000, 10:36:24.170, 1583739384170
31, -27588.24, -32273.10, -21625.92, -17278.72, -22076.84, -21916.22, -25011.73, -24133.45, 0.000, 0.000, 0.000, 10:36:24.171, 1583739384171
32, -26805.82, -32192.61, -21431.30, -17106.17, -21176.98, -21810.41, -24595.10, -23692.09, 0.000, 0.000, 0.000, 10:36:24.171, 1583739384171
33, -26395.71, -32157.25, -21287.53, -16974.41, -20603.88, -21716.60, -24411.50, -23405.79, 0.000, 0.000, 0.000, 10:36:24.171, 1583739384171
34, -26934.30, -32232.27, -21400.92, -17063.84, -21153.85, -21777.13, -24722.24, -23674.16, 0.000, 0.000, 0.000, 10:36:24.171, 1583739384171
35, -27620.03, -32298.58, -21609.13, -17272.40, -22060.23, -21930.50, -25069.58, -24112.53, 0.000, 0.000, 0.000, 10:36:24.171, 1583739384171
36, -27589.05, -32276.86, -21620.48, -17266.03, -22069.42, -21908.60, -25008.45, -24130.14, 0.000, 0.000, 0.000, 10:36:24.172, 1583739384172
37, -26806.13, -32187.40, -21424.84, -17107.38, -21168.98, -21808.46, -24589.20, -23691.37, 0.000, 0.000, 0.000, 10:36:24.172, 1583739384172
38, -26407.40, -32166.19, -21297.17, -16990.54, -20609.63, -21728.13, -24419.62, -23416.67, 0.008, -0.016, 0.962, 10:36:24.172, 1583739384172
39, -26942.59, -32240.56, -21405.71, -17072.33, -21155.95, -21783.16, -24727.67, -23680.40, 0.000, 0.000, 0.000, 10:36:24.172, 1583739384172
40, -27624.19, -32301.67, -21604.62, -17275.30, -22055.85, -21932.94, -25072.26, -24114.40, 0.000, 0.000, 0.000, 10:36:24.173, 1583739384173
41, -27602.41, -32289.42, -21624.31, -17276.13, -22075.74, -21918.25, -25020.70, -24140.55, 0.000, 0.000, 0.000, 10:36:24.173, 1583739384173
42, -26809.58, -32190.02, -21423.86, -17110.73, -21172.49, -21810.94, -24594.32, -23696.11, 0.000, 0.000, 0.000, 10:36:24.173, 1583739384173
43, -26405.37, -32163.87, -21293.32, -16983.99, -20609.89, -21723.82, -24419.62, -23415.82, 0.000, 0.000, 0.000, 10:36:24.173, 1583739384173
44, -26936.98, -32234.81, -21403.29, -17061.00, -21152.33, -21775.02, -24726.37, -23674.81, 0.000, 0.000, 0.000, 10:36:24.173, 1583739384173
45, -27616.59, -32292.84, -21609.44, -17271.30, -22058.42, -21928.38, -25069.20, -24110.69, 0.000, 0.000, 0.000, 10:36:24.174, 1583739384174
46, -27593.36, -32277.13, -21626.52, -17271.66, -22079.32, -21912.15, -25016.00, -24135.03, 0.000, 0.000, 0.000, 10:36:24.174, 1583739384174
47, -26810.96, -32186.73, -21433.67, -17113.97, -21186.21, -21812.55, -24599.79, -23697.50, 0.000, 0.000, 0.000, 10:36:24.174, 1583739384174
48, -26397.19, -32153.72, -21291.53, -16981.56, -20607.93, -21718.99, -24411.79, -23409.45, 0.008, -0.016, 0.964, 10:36:24.174, 1583739384174
49, -26929.69, -32228.98, -21396.92, -17049.62, -21145.98, -21763.85, -24715.60, -23664.69, 0.000, 0.000, 0.000, 10:36:24.175, 1583739384175
50, -27613.66, -32290.83, -21599.21, -17258.54, -22048.90, -21916.15, -25058.43, -24099.36, 0.000, 0.000, 0.000, 10:36:24.175, 1583739384175
51, -27592.45, -32274.11, -21616.97, -17259.95, -22070.89, -21899.37, -25003.40, -24125.15, 0.000, 0.000, 0.000, 10:36:24.175, 1583739384175
52, -26808.73, -32183.49, -21426.29, -17110.91, -21177.79, -21805.40, -24588.04, -23692.92, 0.000, 0.000, 0.000, 10:36:24.175, 1583739384175
53, -26401.23, -32160.22, -21298.78, -16998.10, -20613.96, -21728.82, -24414.16, -23419.35, 0.000, 0.000, 0.000, 10:36:24.175, 1583739384175
54, -26934.66, -32238.48, -21405.51, -17073.54, -21151.16, -21783.05, -24720.89, -23681.34, 0.000, 0.000, 0.000, 10:36:24.176, 1583739384176
55, -27617.57, -32295.32, -21609.22, -17276.47, -22056.05, -21934.50, -25065.33, -24116.79, 0.000, 0.000, 0.000, 10:36:24.176, 1583739384176
56, -27595.11, -32274.04, -21623.72, -17272.73, -22080.95, -21917.29, -25012.09, -24142.72, 0.000, 0.000, 0.000, 10:36:24.176, 1583739384176
57, -26818.90, -32191.61, -21433.29, -17116.43, -21190.71, -21820.15, -24600.13, -23711.98, 0.000, 0.000, 0.000, 10:36:24.176, 1583739384176
58, -26406.26, -32166.60, -21300.63, -16994.88, -20619.08, -21732.55, -24421.16, -23428.63, 0.000, 0.000, 0.000, 10:36:24.176, 1583739384176
59, -26933.27, -32241.36, -21406.29, -17073.74, -21153.49, -21784.50, -24723.53, -23685.40, 0.002, -0.018, 0.962, 10:36:24.177, 1583739384177
60, -27618.69, -32301.20, -21612.95, -17285.74, -22062.22, -21942.95, -25070.77, -24122.74, 0.000, 0.000, 0.000, 10:36:24.177, 1583739384177
61, -27609.30, -32287.18, -21631.57, -17281.59, -22092.35, -21925.21, -25021.39, -24150.54, 0.000, 0.000, 0.000, 10:36:24.177, 1583739384177
62, -26825.24, -32194.02, -21430.31, -17111.27, -21194.46, -21815.48, -24600.20, -23707.78, 0.000, 0.000, 0.000, 10:36:24.177, 1583739384177
63, -26407.56, -32164.70, -21291.87, -16981.27, -20615.19, -21722.03, -24415.61, -23418.30, 0.000, 0.000, 0.000, 10:36:24.177, 1583739384177
64, -26933.56, -32235.73, -21401.06, -17062.92, -21148.48, -21776.28, -24717.88, -23675.62, 0.000, 0.000, 0.000, 10:36:24.177, 1583739384177
65, -27614.26, -32296.62, -21611.28, -17278.99, -22059.76, -21936.61, -25067.53, -24113.37, 0.000, 0.000, 0.000, 10:36:24.177, 1583739384177
66, -27599.31, -32278.20, -21631.48, -17279.93, -22093.22, -21919.62, -25020.90, -24141.94, 0.000, 0.000, 0.000, 10:36:24.177, 1583739384177
67, -26826.23, -32191.65, -21442.90, -17121.75, -21206.66, -21819.04, -24611.66, -23708.99, 0.000, 0.000, 0.000, 10:36:24.178, 1583739384178
68, -26414.17, -32165.93, -21300.59, -16985.69, -20625.68, -21725.36, -24428.49, -23422.35, 0.000, 0.000, 0.000, 10:36:24.178, 1583739384178
69, -26935.84, -32237.76, -21404.19, -17057.98, -21151.39, -21776.61, -24728.38, -23674.50, 0.000, -0.022, 0.972, 10:36:24.178, 1583739384178
70, -27609.57, -32292.77, -21608.95, -17272.44, -22056.99, -21935.44, -25068.84, -24106.18, 0.000, 0.000, 0.000, 10:36:24.178, 1583739384178
71, -27603.17, -32279.40, -21631.55, -17274.25, -22095.68, -21920.29, -25020.97, -24138.63, 0.000, 0.000, 0.000, 10:36:24.178, 1583739384178
72, -26829.89, -32189.51, -21438.43, -17110.80, -21206.15, -21815.66, -24607.08, -23705.57, 0.000, 0.000, 0.000, 10:36:24.178, 1583739384178
73, -26413.88, -32162.26, -21296.16, -16984.84, -20620.13, -21725.65, -24422.16, -23420.25, 0.000, 0.000, 0.000, 10:36:24.178, 1583739384178
74, -26931.08, -32235.15, -21397.37, -17059.21, -21141.60, -21775.05, -24719.06, -23671.68, 0.000, 0.000, 0.000, 10:36:24.178, 1583739384178
75, -27603.15, -32289.84, -21602.31, -17269.92, -22043.13, -21933.43, -25060.24, -24100.92, 0.000, 0.000, 0.000, 10:36:24.178, 1583739384178
76, -27596.51, -32273.79, -21623.17, -17271.28, -22081.09, -21915.82, -25011.89, -24133.60, 0.000, 0.000, 0.000, 10:36:24.179, 1583739384179
77, -26825.54, -32185.44, -21423.52, -17100.54, -21189.39, -21802.83, -24593.56, -23697.63, 0.000, 0.000, 0.000, 10:36:24.179, 1583739384179
78, -26411.07, -32159.33, -21285.95, -16968.08, -20606.70, -21707.95, -24409.91, -23411.42, 0.000, 0.000, 0.000, 10:36:24.179, 1583739384179
79, -26927.28, -32232.38, -21394.08, -17053.58, -21131.18, -21765.59, -24712.94, -23667.19, 0.002, -0.020, 0.966, 10:36:24.179, 1583739384179
80, -27596.18, -32286.09, -21599.34, -17277.14, -22037.23, -21933.70, -25056.33, -24099.78, 0.000, 0.000, 0.000, 10:36:24.179, 1583739384179
81, -27598.90, -32276.97, -21631.50, -17283.08, -22087.37, -21923.51, -25018.31, -24140.26, 0.000, 0.000, 0.000, 10:36:24.179, 1583739384179
82, -26827.43, -32183.07, -21433.13, -17112.56, -21196.09, -21810.07, -24597.11, -23704.56, 0.000, 0.000, 0.000, 10:36:24.179, 1583739384179
83, -26412.03, -32156.83, -21288.72, -16974.61, -20609.78, -21712.26, -24412.40, -23418.50, 0.000, 0.000, 0.000, 10:36:24.179, 1583739384179
84, -26924.02, -32225.96, -21387.42, -17044.01, -21124.05, -21761.05, -24708.31, -23666.41, 0.000, 0.000, 0.000, 10:36:24.180, 1583739384180
85, -27594.48, -32284.10, -21596.34, -17268.91, -22030.82, -21931.75, -25051.10, -24099.72, 0.000, 0.000, 0.000, 10:36:24.180, 1583739384180
86, -27593.72, -32269.19, -21622.43, -17278.17, -22082.14, -21918.86, -25008.99, -24137.11, 0.000, 0.000, 0.000, 10:36:24.180, 1583739384180
87, -26829.71, -32181.57, -21431.37, -17109.30, -21199.00, -21808.08, -24598.12, -23706.44, 0.000, 0.000, 0.000, 10:36:24.180, 1583739384180
88, -26419.36, -32160.34, -21303.76, -16982.70, -20625.07, -21719.68, -24424.00, -23426.97, 0.000, 0.000, 0.000, 10:36:24.180, 1583739384180
89, -26928.08, -32229.07, -21407.74, -17058.09, -21143.30, -21773.57, -24724.18, -23675.30, 0.008, -0.022, 0.970, 10:36:24.180, 1583739384180
90, -27588.13, -32278.35, -21609.22, -17276.62, -22046.38, -21942.19, -25062.92, -24103.58, 0.000, 0.000, 0.000, 10:36:24.180, 1583739384180
91, -27596.36, -32267.36, -21629.76, -17278.37, -22096.76, -21924.83, -25020.45, -24142.59, 0.000, 0.000, 0.000, 10:36:24.181, 1583739384181
92, -26840.40, -32187.61, -21437.38, -17114.89, -21217.01, -21815.44, -24609.31, -23715.60, 0.000, 0.000, 0.000, 10:36:24.181, 1583739384181
93, -26428.25, -32168.12, -21304.61, -16987.01, -20634.24, -21723.19, -24427.55, -23433.23, 0.000, 0.000, 0.000, 10:36:24.181, 1583739384181
94, -26935.19, -32239.87, -21411.27, -17066.88, -21148.68, -21780.12, -24724.65, -23682.28, 0.000, 0.000, 0.000, 10:36:24.181, 1583739384181
95, -27593.79, -32288.72, -21614.45, -17291.38, -22048.52, -21952.68, -25059.84, -24107.14, 0.000, 0.000, 0.000, 10:36:24.181, 1583739384181
96, -27599.87, -32276.68, -21637.87, -17297.14, -22106.23, -21935.73, -25020.43, -24147.30, 0.000, 0.000, 0.000, 10:36:24.181, 1583739384181
97, -26844.64, -32191.14, -21447.57, -17124.95, -21233.02, -21822.07, -24614.88, -23722.08, 0.000, 0.000, 0.000, 10:36:24.182, 1583739384182
98, -26431.34, -32165.08, -21309.39, -16990.70, -20644.54, -21724.58, -24432.71, -23436.47, 0.000, 0.000, 0.000, 10:36:24.182, 1583739384182
99, -26933.92, -32233.56, -21410.53, -17063.28, -21149.67, -21773.48, -24723.06, -23676.51, 0.004, -0.020, 0.970, 10:36:24.182, 1583739384182
100, -27579.97, -32278.20, -21607.23, -17281.18, -22041.03, -21939.85, -25050.02, -24090.58, 0.000, 0.000, 0.000, 10:36:24.182, 1583739384182
101, -27593.03, -32265.79, -21630.52, -17281.72, -22099.21, -21921.16, -25011.42, -24132.17, 0.000, 0.000, 0.000, 10:36:24.182, 1583739384182
102, -26837.34, -32176.34, -21435.30, -17103.26, -21218.85, -21799.52, -24597.92, -23700.80, 0.000, 0.000, 0.000, 10:36:24.182, 1583739384182
103, -26425.71, -32156.00, -21296.32, -16968.86, -20627.62, -21700.39, -24415.95, -23415.37, 0.000, 0.000, 0.000, 10:36:24.183, 1583739384183
104, -26925.98, -32227.73, -21392.63, -17040.16, -21129.80, -21749.34, -24706.39, -23656.33, 0.000, 0.000, 0.000, 10:36:24.183, 1583739384183
105, -27576.17, -32279.20, -21593.86, -17265.38, -22026.62, -21924.47, -25036.68, -24078.53, 0.000, 0.000, 0.000, 10:36:24.183, 1583739384183
106, -27593.67, -32268.90, -21622.79, -17277.16, -22089.92, -21912.69, -25002.35, -24126.05, 0.000, 0.000, 0.000, 10:36:24.183, 1583739384183
107, -26848.09, -32188.03, -21432.82, -17115.40, -21219.05, -21802.90, -24598.25, -23707.96, 0.000, 0.000, 0.000, 10:36:24.183, 1583739384183
108, -26429.19, -32163.13, -21294.53, -16979.39, -20627.02, -21704.24, -24413.83, -23420.25, 0.000, 0.000, 0.000, 10:36:24.184, 1583739384184
109, -26933.78, -32237.47, -21399.76, -17049.66, -21128.19, -21758.93, -24710.88, -23663.50, 0.006, -0.026, 0.974, 10:36:24.184, 1583739384184
110, -27580.42, -32282.76, -21597.80, -17268.49, -22021.59, -21933.27, -25043.05, -24082.82, 0.000, 0.000, 0.000, 10:36:24.184, 1583739384184
111, -27603.00, -32274.51, -21625.85, -17281.32, -22095.26, -21924.65, -25013.68, -24135.55, 0.000, 0.000, 0.000, 10:36:24.184, 1583739384184
112, -26854.35, -32189.33, -21439.14, -17119.25, -21228.88, -21813.71, -24609.34, -23716.74, 0.000, 0.000, 0.000, 10:36:24.184, 1583739384184
113, -26438.13, -32165.79, -21299.29, -16987.93, -20635.22, -21718.83, -24427.71, -23434.82, 0.000, 0.000, 0.000, 10:36:24.184, 1583739384184
114, -26931.64, -32234.54, -21399.98, -17063.08, -21132.39, -21773.55, -24717.14, -23674.18, 0.000, 0.000, 0.000, 10:36:24.185, 1583739384185
115, -27578.07, -32286.45, -21603.14, -17288.98, -22029.74, -21953.12, -25050.78, -24096.23, 0.000, 0.000, 0.000, 10:36:24.185, 1583739384185
116, -27596.31, -32270.15, -21626.03, -17280.96, -22098.39, -21927.84, -25018.11, -24136.89, 0.000, 0.000, 0.000, 10:36:24.185, 1583739384185
117, -26849.47, -32185.77, -21440.93, -17118.84, -21233.64, -21816.69, -24618.52, -23718.66, 0.000, 0.000, 0.000, 10:36:24.185, 1583739384185
118, -26434.56, -32163.87, -21305.99, -16987.41, -20644.21, -21721.13, -24437.21, -23434.66, 0.000, 0.000, 0.000, 10:36:24.185, 1583739384185
119, -26927.73, -32232.94, -21406.18, -17050.89, -21138.27, -21768.05, -24726.13, -23667.90, 0.006, -0.016, 0.972, 10:36:24.185, 1583739384185
120, -27568.04, -32278.64, -21604.90, -17277.34, -22030.55, -21945.77, -25053.11, -24084.38, 0.000, 0.000, 0.000, 10:36:24.186, 1583739384186
121, -27595.57, -32272.77, -21635.91, -17294.01, -22111.57, -21936.81, -25024.65, -24139.17, 0.000, 0.000, 0.000, 10:36:24.638, 1583739384638
122, -26855.31, -32190.27, -21451.42, -17130.58, -21250.88, -21824.22, -24626.39, -23724.50, 0.000, 0.000, 0.000, 10:36:24.638, 1583739384638
123, -26435.09, -32166.17, -21310.82, -16987.71, -20652.07, -21721.22, -24438.88, -23435.49, 0.000, 0.000, 0.000, 10:36:24.639, 1583739384639
124, -26926.47, -32235.33, -21403.83, -17047.61, -21134.76, -21763.04, -24719.55, -23664.62, 0.000, 0.000, 0.000, 10:36:24.639, 1583739384639
125, -27565.22, -32281.01, -21603.14, -17272.91, -22021.94, -21938.04, -25044.95, -24078.19, 0.000, 0.000, 0.000, 10:36:24.639, 1583739384639
126, -27587.71, -32268.01, -21631.82, -17285.70, -22100.53, -21924.24, -25016.12, -24129.42, 0.000, 0.000, 0.000, 10:36:24.639, 1583739384639
127, -26846.72, -32180.43, -21438.65, -17114.71, -21233.33, -21807.26, -24610.10, -23711.67, 0.000, 0.000, 0.000, 10:36:24.639, 1583739384639
128, -26429.95, -32162.35, -21299.27, -16977.65, -20635.38, -21707.83, -24422.68, -23423.87, 0.000, 0.000, 0.000, 10:36:24.640, 1583739384640
129, -26915.41, -32231.71, -21392.96, -17042.67, -21116.68, -21754.21, -24704.96, -23653.67, 0.006, -0.020, 0.968, 10:36:24.640, 1583739384640
130, -27557.91, -32279.81, -21594.18, -17279.15, -22009.70, -21940.00, -25034.53, -24073.92, 0.000, 0.000, 0.000, 10:36:24.640, 1583739384640
131, -27596.18, -32275.54, -21634.74, -17301.81, -22103.37, -21938.44, -25017.32, -24138.92, 0.000, 0.000, 0.000, 10:36:24.640, 1583739384640
132, -26861.97, -32196.81, -21450.21, -17127.85, -21244.42, -21822.32, -24618.46, -23724.72, 0.000, 0.000, 0.000, 10:36:24.649, 1583739384649
133, -26437.91, -32171.89, -21299.87, -16975.46, -20633.81, -21711.19, -24423.62, -23428.11, 0.000, 0.000, 0.000, 10:36:24.650, 1583739384650
134, -26920.93, -32238.12, -21390.31, -17040.90, -21110.64, -21757.68, -24705.31, -23658.70, 0.000, 0.000, 0.000, 10:36:24.650, 1583739384650
135, -27559.45, -32282.94, -21591.16, -17272.80, -22005.65, -21940.23, -25036.46, -24077.43, 0.000, 0.000, 0.000, 10:36:24.650, 1583739384650
136, -27595.96, -32274.38, -21627.57, -17291.55, -22101.00, -21933.59, -25016.21, -24139.48, 0.000, 0.000, 0.000, 10:36:24.650, 1583739384650
137, -26864.27, -32197.13, -21441.63, -17123.02, -21242.99, -21819.82, -24619.53, -23729.04, 0.000, 0.000, 0.000, 10:36:24.650, 1583739384650
138, -26441.93, -32175.94, -21298.84, -16980.26, -20638.71, -21717.49, -24430.37, -23437.84, 0.000, 0.000, 0.000, 10:36:24.650, 1583739384650
139, -26917.74, -32237.00, -21389.52, -17036.95, -21111.91, -21756.20, -24707.06, -23658.27, 0.000, -0.018, 0.966, 10:36:24.651, 1583739384651
140, -27560.75, -32285.06, -21593.93, -17270.25, -22011.19, -21942.08, -25041.42, -24077.28, 0.000, 0.000, 0.000, 10:36:24.651, 1583739384651
141, -27604.49, -32280.50, -21634.88, -17291.06, -22113.07, -21937.37, -25025.48, -24142.28, 0.000, 0.000, 0.000, 10:36:24.651, 1583739384651
142, -26873.01, -32204.04, -21450.61, -17128.05, -21256.84, -21823.48, -24628.54, -23732.14, 0.000, 0.000, 0.000, 10:36:24.651, 1583739384651
143, -26440.59, -32174.13, -21302.69, -16987.35, -20644.56, -21717.42, -24434.14, -23435.18, 0.000, 0.000, 0.000, 10:36:24.651, 1583739384651
144, -26925.38, -32242.88, -21402.71, -17058.89, -21126.06, -21767.74, -24722.26, -23665.51, 0.000, 0.000, 0.000, 10:36:24.651, 1583739384651
145, -27562.70, -32284.63, -21596.30, -17273.96, -22019.35, -21941.52, -25048.39, -24074.46, 0.000, 0.000, 0.000, 10:36:24.652, 1583739384652
146, -27602.71, -32277.08, -21628.38, -17282.53, -22114.17, -21930.17, -25025.77, -24135.17, 0.000, 0.000, 0.000, 10:36:24.652, 1583739384652
147, -26866.77, -32192.93, -21443.19, -17116.12, -21258.05, -21814.18, -24625.74, -23723.60, 0.000, 0.000, 0.000, 10:36:24.652, 1583739384652
148, -26439.19, -32170.02, -21307.96, -16980.73, -20650.49, -21714.99, -24436.80, -23432.56, 0.000, 0.000, 0.000, 10:36:24.652, 1583739384652
149, -26918.45, -32239.66, -21403.63, -17053.40, -21123.02, -21766.73, -24719.82, -23662.94, 0.000, 0.000, 0.000, 10:36:24.652, 1583739384652
150, -27555.36, -32280.63, -21597.86, -17278.39, -22014.46, -21946.71, -25042.83, -24075.49, -0.004, -0.014, 0.968, 10:36:24.652, 1583739384652
151, -27595.84, -32271.25, -21626.99, -17285.47, -22108.76, -21931.60, -25017.03, -24133.92, 0.000, 0.000, 0.000, 10:36:24.652, 1583739384652
152, -26861.37, -32187.61, -21435.21, -17119.33, -21249.06, -21814.25, -24617.45, -23722.29, 0.000, 0.000, 0.000, 10:36:24.653, 1583739384653
153, -26432.59, -32165.72, -21298.08, -16985.43, -20637.12, -21714.85, -24427.82, -23433.30, 0.000, 0.000, 0.000, 10:36:24.653, 1583739384653
154, -26912.95, -32235.46, -21393.48, -17047.23, -21104.18, -21760.12, -24705.47, -23658.85, 0.000, 0.000, 0.000, 10:36:24.653, 1583739384653
155, -27560.75, -32287.47, -21594.82, -17272.91, -22003.66, -21943.06, -25035.07, -24075.64, 0.000, 0.000, 0.000, 10:36:24.653, 1583739384653
156, -27604.34, -32280.66, -21627.95, -17285.61, -22107.77, -21932.65, -25016.05, -24139.48, 0.000, 0.000, 0.000, 10:36:24.654, 1583739384654
157, -26862.59, -32192.01, -21437.13, -17112.99, -21248.01, -21809.91, -24610.30, -23722.20, 0.000, 0.000, 0.000, 10:36:24.654, 1583739384654
158, -26439.14, -32177.88, -21310.15, -16985.85, -20647.47, -21721.22, -24429.94, -23440.01, 0.000, 0.000, 0.000, 10:36:24.654, 1583739384654
159, -26906.16, -32236.71, -21395.29, -17042.31, -21106.51, -21759.69, -24701.98, -23655.52, 0.000, 0.000, 0.000, 10:36:24.654, 1583739384654
160, -27545.66, -32274.93, -21582.04, -17259.17, -21996.89, -21930.84, -25021.71, -24061.18, 0.000, -0.020, 0.972, 10:36:24.654, 1583739384654
161, -27603.46, -32273.28, -21622.47, -17283.80, -22108.80, -21929.23, -25012.43, -24133.87, 0.000, 0.000, 0.000, 10:36:24.655, 1583739384655
162, -26880.23, -32198.25, -21444.24, -17124.88, -21261.92, -21820.40, -24624.78, -23731.49, 0.000, 0.000, 0.000, 10:36:24.655, 1583739384655
163, -26444.33, -32174.75, -21304.83, -16983.68, -20645.72, -21719.37, -24434.66, -23436.43, 0.000, 0.000, 0.000, 10:36:24.655, 1583739384655
164, -26913.64, -32238.61, -21390.69, -17042.27, -21105.75, -21762.08, -24710.34, -23657.24, 0.000, 0.000, 0.000, 10:36:24.655, 1583739384655
165, -27559.45, -32289.46, -21592.63, -17279.33, -22010.46, -21953.01, -25043.43, -24079.82, 0.000, 0.000, 0.000, 10:36:24.655, 1583739384655
166, -27611.00, -32281.08, -21634.21, -17298.80, -22124.78, -21949.68, -25033.15, -24151.55, 0.000, 0.000, 0.000, 10:36:24.655, 1583739384655
167, -26878.42, -32196.88, -21447.21, -17123.04, -21268.96, -21827.80, -24634.97, -23739.70, 0.000, 0.000, 0.000, 10:36:24.656, 1583739384656
168, -26438.92, -32176.50, -21310.02, -16983.37, -20653.06, -21727.57, -24441.79, -23445.28, 0.000, 0.000, 0.000, 10:36:24.656, 1583739384656
169, -26904.66, -32239.98, -21396.99, -17039.40, -21112.05, -21766.13, -24714.48, -23661.80, 0.000, 0.000, 0.000, 10:36:24.656, 1583739384656
170, -27553.87, -32286.04, -21598.31, -17270.01, -22015.89, -21948.59, -25046.65, -24077.50, -0.004, -0.016, 0.970, 10:36:24.656, 1583739384656
171, -27612.38, -32282.29, -21640.60, -17297.86, -22132.65, -21945.66, -25034.62, -24150.10, 0.000, 0.000, 0.000, 10:36:24.656, 1583739384656
172, -26888.86, -32206.98, -21460.71, -17134.11, -21285.41, -21832.18, -24642.28, -23745.73, 0.000, 0.000, 0.000, 10:36:24.656, 1583739384656
173, -26444.28, -32180.16, -21319.38, -16995.75, -20661.75, -21730.72, -24445.07, -23448.72, 0.000, 0.000, 0.000, 10:36:24.657, 1583739384657
174, -26914.99, -32247.33, -21409.53, -17052.64, -21121.04, -21772.74, -24724.54, -23667.72, 0.000, 0.000, 0.000, 10:36:24.657, 1583739384657
175, -27560.15, -32288.17, -21605.35, -17272.96, -22022.90, -21952.52, -25052.66, -24080.40, 0.000, 0.000, 0.000, 10:36:24.657, 1583739384657
176, -27613.43, -32277.59, -21645.12, -17295.58, -22141.15, -21948.67, -25038.91, -24153.05, 0.000, 0.000, 0.000, 10:36:24.657, 1583739384657
177, -26886.55, -32202.60, -21460.67, -17126.76, -21288.65, -21831.71, -24640.38, -23746.54, 0.000, 0.000, 0.000, 10:36:24.658, 1583739384658
178, -26444.26, -32181.68, -21311.47, -16980.49, -20656.03, -21722.21, -24432.82, -23442.13, 0.000, 0.000, 0.000, 10:36:24.658, 1583739384658
179, -26917.76, -32252.65, -21399.54, -17044.84, -21107.49, -21766.51, -24707.08, -23660.37, 0.000, 0.000, 0.000, 10:36:24.658, 1583739384658
180, -27565.31, -32298.81, -21600.50, -17281.94, -22012.71, -21955.31, -25037.51, -24078.66, 0.000, -0.020, 0.972, 10:36:24.658, 1583739384658
181, -27616.56, -32284.54, -21631.86, -17295.06, -22126.97, -21944.99, -25023.63, -24146.86, 0.000, 0.000, 0.000, 10:36:24.658, 1583739384658
182, -26892.05, -32203.52, -21448.46, -17133.10, -21280.58, -21832.18, -24633.32, -23745.53, 0.000, 0.000, 0.000, 10:36:24.659, 1583739384659
183, -26439.16, -32172.61, -21297.61, -16985.98, -20642.19, -21722.45, -24424.42, -23439.96, 0.000, 0.000, 0.000, 10:36:24.659, 1583739384659
184, -26905.98, -32238.95, -21386.51, -17045.15, -21091.78, -21763.38, -24696.58, -23655.48, 0.000, 0.000, 0.000, 10:36:24.659, 1583739384659
185, -27555.88, -32285.33, -21581.77, -17275.30, -21994.88, -21948.14, -25026.35, -24071.62, 0.000, 0.000, 0.000, 10:36:24.659, 1583739384659
186, -27618.13, -32280.52, -21623.35, -17290.77, -22122.10, -21940.00, -25017.12, -24145.74, 0.000, 0.000, 0.000, 10:36:24.659, 1583739384659
187, -26892.30, -32202.52, -21440.71, -17112.67, -21274.17, -21817.00, -24624.83, -23736.30, 0.000, 0.000, 0.000, 10:36:24.660, 1583739384660
188, -26438.78, -32174.91, -21298.73, -16972.37, -20643.56, -21712.84, -24423.62, -23432.03, 0.000, 0.000, 0.000, 10:36:24.660, 1583739384660
189, -26899.36, -32238.30, -21387.31, -17032.01, -21091.08, -21753.86, -24695.86, -23644.93, 0.000, 0.000, 0.000, 10:36:24.660, 1583739384660
190, -27552.70, -32287.83, -21588.03, -17267.15, -22000.80, -21943.67, -25029.73, -24065.47, 0.000, -0.022, 0.974, 10:36:24.660, 1583739384660
191, -27619.36, -32280.66, -21630.92, -17295.78, -22132.32, -21945.48, -25025.77, -24146.63, 0.000, 0.000, 0.000, 10:36:24.660, 1583739384660
192, -26890.44, -32195.50, -21447.10, -17132.37, -21285.65, -21827.51, -24635.44, -23742.71, 0.000, 0.000, 0.000, 10:36:24.661, 1583739384661
193, -26442.69, -32175.54, -21308.50, -16992.38, -20654.06, -21726.03, -24439.55, -23442.22, 0.000, 0.000, 0.000, 10:36:24.661, 1583739384661
194, -26899.25, -32237.70, -21390.17, -17035.74, -21092.54, -21755.98, -24705.34, -23644.88, 0.000, 0.000, 0.000, 10:36:24.661, 1583739384661
195, -27548.52, -32284.28, -21584.39, -17262.90, -21998.05, -21937.10, -25034.33, -24059.33, 0.000, 0.000, 0.000, 10:36:24.661, 1583739384661
196, -27612.94, -32274.02, -21620.48, -17282.95, -22127.69, -21930.37, -25027.81, -24135.50, 0.000, 0.000, 0.000, 10:36:24.662, 1583739384662
197, -26895.29, -32196.41, -21446.25, -17120.38, -21287.38, -21817.89, -24638.37, -23737.31, 0.000, 0.000, 0.000, 10:36:24.662, 1583739384662
198, -26430.87, -32160.83, -21294.35, -16965.49, -20641.81, -21705.69, -24425.22, -23423.89, 0.000, 0.000, 0.000, 10:36:24.662, 1583739384662
199, -26887.45, -32225.54, -21381.12, -17021.10, -21082.86, -21745.25, -24696.04, -23635.34, 0.000, 0.000, 0.000, 10:36:24.662, 1583739384662
200, -27542.69, -32276.83, -21589.79, -17263.41, -21998.21, -21938.88, -25034.67, -24059.42, 0.000, -0.020, 0.974, 10:36:24.662, 1583739384662
201, -27620.94, -32278.15, -21641.79, -17303.54, -22143.69, -21948.79, -25039.18, -24149.94, 0.000, 0.000, 0.000, 10:36:24.663, 1583739384663
202, -26899.07, -32199.07, -21457.88, -17139.65, -21301.48, -21835.62, -24648.03, -23750.29, 0.000, 0.000, 0.000, 10:36:24.663, 1583739384663
203, -26434.94, -32168.85, -21306.29, -16987.50, -20655.71, -21727.41, -24437.14, -23440.54, 0.000, 0.000, 0.000, 10:36:24.663, 1583739384663
204, -26888.39, -32235.21, -21388.47, -17039.09, -21087.30, -21761.61, -24701.76, -23648.14, 0.000, 0.000, 0.000, 10:36:24.663, 1583739384663
205, -27536.74, -32278.58, -21584.32, -17261.45, -21989.24, -21939.11, -25026.71, -24058.43, 0.000, 0.000, 0.000, 10:36:24.663, 1583739384663
206, -27610.88, -32269.30, -21620.84, -17279.04, -22123.31, -21932.25, -25017.28, -24136.84, 0.000, 0.000, 0.000, 10:36:24.664, 1583739384664
207, -26894.71, -32195.18, -21440.22, -17120.45, -21281.83, -21820.42, -24627.24, -23739.79, 0.000, 0.000, 0.000, 10:36:24.664, 1583739384664
208, -26432.97, -32168.72, -21295.87, -16979.44, -20641.32, -21717.40, -24424.35, -23434.71, 0.000, 0.000, 0.000, 10:36:24.664, 1583739384664
209, -26888.79, -32233.74, -21379.64, -17034.69, -21076.82, -21753.05, -24692.55, -23641.91, 0.000, 0.000, 0.000, 10:36:24.665, 1583739384665
210, -27544.03, -32282.62, -21577.86, -17262.77, -21985.71, -21935.53, -25024.72, -24058.68, -0.006, -0.022, 0.976, 10:36:24.665, 1583739384665
211, -27623.00, -32282.20, -21626.72, -17291.82, -22133.28, -21938.84, -25026.85, -24147.01, 0.000, 0.000, 0.000, 10:36:24.665, 1583739384665
212, -26902.27, -32200.50, -21444.84, -17126.93, -21289.41, -21822.12, -24636.99, -23746.31, 0.000, 0.000, 0.000, 10:36:24.665, 1583739384665
213, -26437.31, -32169.05, -21299.40, -16980.44, -20645.97, -21716.15, -24428.82, -23435.40, 0.000, 0.000, 0.000, 10:36:24.665, 1583739384665
214, -26891.32, -32236.15, -21385.03, -17028.14, -21079.15, -21750.15, -24694.43, -23641.24, 0.000, 0.000, 0.000, 10:36:24.666, 1583739384666
215, -27545.17, -32286.74, -21584.10, -17263.12, -21989.69, -21938.62, -25027.67, -24062.08, 0.000, 0.000, 0.000, 10:36:24.666, 1583739384666
216, -27624.52, -32281.42, -21631.10, -17295.42, -22139.31, -21941.39, -25030.67, -24149.43, 0.000, 0.000, 0.000, 10:36:24.666, 1583739384666
217, -26901.71, -32193.33, -21449.76, -17125.62, -21296.88, -21823.15, -24638.10, -23747.16, 0.000, 0.000, 0.000, 10:36:24.666, 1583739384666
218, -26436.30, -32164.70, -21309.57, -16985.63, -20649.28, -21722.97, -24430.08, -23440.03, 0.000, 0.000, 0.000, 10:36:24.666, 1583739384666
219, -26889.08, -32231.77, -21393.66, -17037.97, -21082.66, -21760.79, -24700.29, -23647.59, 0.000, 0.000, 0.000, 10:36:24.667, 1583739384667
220, -27543.27, -32278.35, -21590.53, -17265.74, -21993.56, -21946.46, -25035.74, -24066.57, 0.004, -0.020, 0.974, 10:36:24.667, 1583739384667
221, -27624.88, -32272.32, -21636.73, -17299.71, -22146.73, -21951.45, -25040.10, -24157.88, 0.000, 0.000, 0.000, 10:36:24.667, 1583739384667
222, -26910.63, -32193.71, -21458.77, -17139.12, -21313.19, -21838.23, -24653.84, -23762.27, 0.000, 0.000, 0.000, 10:36:24.667, 1583739384667
223, -26443.07, -32167.47, -21312.97, -16998.01, -20661.62, -21736.38, -24446.13, -23453.26, 0.000, 0.000, 0.000, 10:36:24.667, 1583739384667
224, -26891.70, -32233.38, -21394.06, -17047.61, -21087.62, -21767.29, -24711.06, -23654.11, 0.000, 0.000, 0.000, 10:36:24.667, 1583739384667
225, -27538.89, -32275.07, -21581.70, -17262.43, -21988.04, -21939.49, -25032.86, -24059.21, 0.000, 0.000, 0.000, 10:36:24.668, 1583739384668
226, -27627.40, -32276.79, -21635.26, -17295.00, -22146.69, -21946.57, -25039.81, -24152.54, 0.000, 0.000, 0.000, 10:36:24.668, 1583739384668
227, -26919.66, -32200.32, -21464.25, -17128.45, -21316.72, -21833.36, -24660.08, -23758.99, 0.000, 0.000, 0.000, 10:36:24.668, 1583739384668
228, -26438.31, -32161.37, -21308.19, -16974.50, -20655.63, -21719.77, -24438.32, -23438.98, 0.000, 0.000, 0.000, 10:36:24.668, 1583739384668
229, -26883.34, -32227.88, -21379.76, -17019.33, -21068.17, -21749.56, -24693.85, -23638.47, 0.000, 0.000, 0.000, 10:36:24.668, 1583739384668
230, -27540.95, -32275.63, -21582.66, -17262.38, -21984.82, -21942.17, -25029.24, -24062.19, 0.002, -0.018, 0.972, 10:36:24.669, 1583739384669
231, -27626.11, -32274.06, -21630.95, -17294.19, -22143.65, -21945.84, -25031.43, -24153.54, 0.000, 0.000, 0.000, 10:36:24.669, 1583739384669
232, -26913.91, -32194.47, -21449.54, -17127.05, -21304.77, -21828.18, -24642.48, -23755.72, 0.000, 0.000, 0.000, 10:36:24.669, 1583739384669
233, -26439.03, -32164.16, -21301.81, -16982.61, -20651.02, -21722.83, -24429.47, -23441.99, 0.000, 0.000, 0.000, 10:36:24.669, 1583739384669
234, -26881.19, -32228.46, -21378.41, -17024.03, -21066.61, -21748.96, -24688.64, -23637.44, 0.000, 0.000, 0.000, 10:36:24.669, 1583739384669
235, -27539.79, -32279.94, -21580.85, -17258.50, -21983.03, -21938.73, -25025.28, -24059.73, 0.000, 0.000, 0.000, 10:36:24.669, 1583739384669
236, -27623.31, -32270.93, -21628.38, -17290.10, -22141.64, -21941.23, -25029.66, -24149.92, 0.000, 0.000, 0.000, 10:36:24.670, 1583739384670
237, -26912.95, -32194.20, -21447.75, -17124.70, -21305.35, -21826.10, -24642.37, -23753.85, 0.000, 0.000, 0.000, 10:36:24.670, 1583739384670
238, -26437.58, -32165.88, -21296.43, -16976.64, -20644.72, -21721.02, -24426.83, -23439.54, 0.000, 0.000, 0.000, 10:36:24.670, 1583739384670
239, -26880.52, -32233.18, -21383.47, -17031.96, -21064.53, -21759.33, -24692.80, -23643.16, 0.000, 0.000, 0.000, 10:36:24.670, 1583739384670
240, -27534.71, -32279.45, -21587.96, -17272.40, -21983.03, -21950.22, -25029.21, -24065.68, 0.000, 0.000, 0.000, 10:36:24.670, 1583739384670
241, -27626.67, -32272.28, -21635.62, -17304.63, -22145.82, -21951.74, -25033.30, -24157.38, -0.002, -0.022, 0.972, 10:36:25.117, 1583739385117
242, -26918.63, -32192.97, -21452.94, -17125.62, -21309.79, -21826.03, -24644.27, -23755.79, 0.000, 0.000, 0.000, 10:36:25.117, 1583739385117
243, -26436.12, -32160.07, -21299.09, -16973.06, -20643.36, -21715.52, -24426.23, -23432.79, 0.000, 0.000, 0.000, 10:36:25.118, 1583739385118
244, -26877.44, -32227.79, -21380.47, -17029.39, -21059.16, -21750.28, -24687.54, -23632.05, 0.000, 0.000, 0.000, 10:36:25.118, 1583739385118
245, -27537.33, -32278.42, -21580.09, -17265.25, -21973.84, -21936.85, -25022.15, -24052.26, 0.000, 0.000, 0.000, 10:36:25.118, 1583739385118
246, -27640.01, -32279.36, -21633.98, -17297.50, -22147.76, -21941.05, -25039.09, -24150.46, 0.000, 0.000, 0.000, 10:36:25.118, 1583739385118
247, -26926.90, -32195.18, -21456.27, -17126.08, -21315.81, -21820.35, -24652.16, -23751.79, 0.000, 0.000, 0.000, 10:36:25.118, 1583739385118
248, -26436.12, -32155.93, -21296.99, -16970.29, -20643.38, -21708.62, -24429.49, -23427.89, 0.000, 0.000, 0.000, 10:36:25.118, 1583739385118
249, -26874.11, -32224.15, -21377.41, -17020.88, -21056.53, -21743.37, -24693.04, -23627.49, 0.000, 0.000, 0.000, 10:36:25.118, 1583739385118
250, -27528.32, -32270.15, -21580.92, -17263.19, -21974.31, -21935.51, -25030.38, -24050.88, 0.000, 0.000, 0.000, 10:36:25.118, 1583739385118
251, -27627.00, -32267.18, -21637.52, -17298.39, -22153.73, -21945.21, -25046.71, -24152.54, 0.000, -0.016, 0.976, 10:36:25.123, 1583739385123
252, -26918.23, -32186.49, -21461.61, -17128.90, -21326.18, -21828.13, -24661.08, -23757.71, 0.000, 0.000, 0.000, 10:36:25.123, 1583739385123
253, -26433.71, -32154.57, -21311.38, -16988.69, -20660.46, -21726.36, -24442.48, -23441.77, 0.000, 0.000, 0.000, 10:36:25.123, 1583739385123
254, -26869.08, -32221.36, -21387.73, -17037.66, -21066.09, -21758.60, -24699.01, -23638.67, 0.000, 0.000, 0.000, 10:36:25.124, 1583739385124
255, -27524.81, -32268.81, -21585.15, -17266.92, -21977.33, -21944.52, -25030.40, -24056.69, 0.000, 0.000, 0.000, 10:36:25.124, 1583739385124
0, -27626.06, -32265.55, -21638.19, -17298.95, -22156.88, -21952.23, -25043.36, -24156.74, 0.000, 0.000, 0.000, 10:36:25.124, 1583739385124
1, -26919.17, -32186.04, -21455.64, -17133.68, -21327.43, -21835.02, -24655.92, -23762.85, 0.000, 0.000, 0.000, 10:36:25.124, 1583739385124
2, -26428.84, -32152.36, -21301.97, -16983.50, -20656.03, -21725.94, -24432.00, -23440.27, 0.000, 0.000, 0.000, 10:36:25.124, 1583739385124
3, -26868.25, -32224.20, -21387.15, -17035.96, -21066.34, -21761.14, -24692.51, -23640.79, 0.000, 0.000, 0.000, 10:36:25.124, 1583739385124
4, -27530.66, -32275.07, -21588.45, -17272.33, -21982.43, -21947.76, -25027.72, -24060.89, 0.000, 0.000, 0.000, 10:36:25.124, 1583739385124
5, -27633.84, -32272.43, -21641.83, -17313.53, -22161.73, -21955.49, -25041.93, -24162.88, 0.000, -0.020, 0.974, 10:36:25.124, 1583739385124
6, -26928.60, -32191.79, -21465.41, -17150.31, -21332.41, -21837.83, -24656.23, -23768.71, 0.000, 0.000, 0.000, 10:36:25.125, 1583739385125
7, -26437.35, -32155.87, -21307.94, -16998.01, -20653.93, -21727.46, -24431.62, -23443.78, 0.000, 0.000, 0.000, 10:36:25.125, 1583739385125
8, -26863.60, -32218.96, -21371.78, -17031.74, -21042.07, -21747.69, -24679.59, -23629.46, 0.000, 0.000, 0.000, 10:36:25.125, 1583739385125
9, -27530.80, -32276.01, -21575.85, -17264.08, -21960.50, -21936.69, -25019.80, -24054.57, 0.000, 0.000, 0.000, 10:36:25.125, 1583739385125
10, -27633.53, -32271.98, -21620.71, -17287.24, -22136.81, -21934.04, -25027.61, -24149.14, 0.000, 0.000, 0.000, 10:36:25.125, 1583739385125
11, -26928.76, -32191.81, -21447.08, -17124.43, -21313.15, -21819.08, -24643.69, -23758.81, 0.000, 0.000, 0.000, 10:36:25.125, 1583739385125
12, -26434.98, -32156.54, -21293.25, -16972.21, -20634.12, -21708.04, -24417.98, -23431.31, 0.000, 0.000, 0.000, 10:36:25.125, 1583739385125
13, -26864.63, -32221.87, -21368.65, -17015.13, -21029.95, -21735.26, -24673.64, -23619.69, 0.000, 0.000, 0.000, 10:36:25.125, 1583739385125
14, -27529.08, -32276.43, -21569.59, -17251.84, -21951.89, -21926.50, -25014.42, -24043.17, 0.000, 0.000, 0.000, 10:36:25.125, 1583739385125
15, -27639.52, -32275.13, -21619.84, -17285.88, -22139.47, -21933.52, -25030.85, -24149.14, 0.002, -0.020, 0.970, 10:36:25.126, 1583739385126
16, -26936.15, -32193.13, -21448.55, -17125.15, -21321.35, -21821.16, -24653.19, -23761.92, 0.000, 0.000, 0.000, 10:36:25.126, 1583739385126
17, -26438.18, -32157.72, -21298.46, -16981.18, -20649.48, -21718.32, -24433.63, -23439.63, 0.000, 0.000, 0.000, 10:36:25.126, 1583739385126
18, -26863.09, -32223.59, -21373.63, -17022.84, -21044.77, -21748.04, -24690.05, -23630.96, 0.000, 0.000, 0.000, 10:36:25.126, 1583739385126
19, -27518.86, -32268.99, -21574.78, -17259.12, -21963.14, -21939.20, -25028.63, -24053.94, 0.000, 0.000, 0.000, 10:36:25.126, 1583739385126
20, -27632.48, -32261.75, -21627.55, -17290.95, -22154.13, -21942.06, -25044.50, -24156.11, 0.000, 0.000, 0.000, 10:36:25.126, 1583739385126
21, -26935.91, -32184.30, -21450.30, -17125.84, -21332.48, -21823.68, -24659.29, -23763.79, 0.000, 0.000, 0.000, 10:36:25.126, 1583739385126
22, -26436.21, -32150.86, -21299.58, -16979.93, -20654.60, -21719.68, -24434.46, -23437.57, 0.000, 0.000, 0.000, 10:36:25.126, 1583739385126
23, -26860.40, -32216.60, -21372.51, -17022.33, -21042.42, -21747.49, -24685.45, -23622.11, 0.000, 0.000, 0.000, 10:36:25.127, 1583739385127
24, -27526.22, -32270.55, -21573.70, -17258.94, -21963.29, -21937.54, -25023.31, -24044.26, 0.000, 0.000, 0.000, 10:36:25.127, 1583739385127
25, -27642.27, -32273.28, -21637.25, -17302.62, -22162.40, -21950.55, -25049.15, -24154.90, 0.006, -0.022, 0.970, 10:36:25.127, 1583739385127
26, -26933.72, -32184.88, -21454.61, -17125.48, -21334.56, -21823.26, -24659.70, -23757.65, 0.000, 0.000, 0.000, 10:36:25.127, 1583739385127
27, -26438.38, -32154.35, -21305.23, -16980.87, -20654.33, -21723.15, -24435.91, -23437.17, 0.000, 0.000, 0.000, 10:36:25.127, 1583739385127
28, -26854.26, -32214.34, -21372.11, -17018.69, -21036.03, -21745.10, -24680.84, -23619.13, 0.000, 0.000, 0.000, 10:36:25.127, 1583739385127
29, -27520.18, -32268.59, -21570.44, -17251.37, -21954.15, -21931.73, -25018.13, -24042.79, 0.000, 0.000, 0.000, 10:36:25.127, 1583739385127
30, -27638.65, -32269.12, -21627.75, -17294.06, -22153.77, -21944.56, -25039.88, -24153.81, 0.000, 0.000, 0.000, 10:36:25.127, 1583739385127
31, -26937.09, -32186.60, -21446.03, -17124.88, -21329.51, -21824.44, -24651.04, -23761.22, 0.000, 0.000, 0.000, 10:36:25.129, 1583739385129
32, -26432.75, -32148.67, -21288.36, -16971.23, -20638.86, -21713.85, -24416.93, -23429.66, 0.000, 0.000, 0.000, 10:36:25.129, 1583739385129
33, -26855.71, -32217.60, -21360.62, -17012.70, -21022.80, -21740.15, -24668.05, -23616.12, 0.000, 0.000, 0.000, 10:36:25.129, 1583739385129
34, -27518.42, -32267.51, -21563.15, -17253.31, -21942.17, -21930.10, -25009.19, -24039.79, 0.000, 0.000, 0.000, 10:36:25.129, 1583739385129
35, -27637.39, -32267.74, -21623.93, -17291.26, -22146.91, -21939.78, -25034.87, -24150.86, 0.008, -0.020, 0.976, 10:36:25.129, 1583739385129
36, -26940.02, -32188.81, -21439.57, -17121.21, -21324.73, -21817.34, -24649.64, -23760.93, 0.000, 0.000, 0.000, 10:36:25.129, 1583739385129
37, -26433.69, -32149.27, -21282.79, -16972.26, -20633.65, -21709.02, -24417.51, -23430.37, 0.000, 0.000, 0.000, 10:36:25.130, 1583739385130
38, -26846.46, -32207.01, -21350.07, -17004.45, -21006.41, -21727.10, -24662.00, -23607.55, 0.000, 0.000, 0.000, 10:36:25.130, 1583739385130
39, -27519.71, -32268.23, -21557.52, -17243.68, -21933.32, -21921.49, -25006.97, -24034.96, 0.000, 0.000, 0.000, 10:36:25.130, 1583739385130
40, -27643.32, -32267.51, -21616.39, -17284.51, -22140.65, -21931.42, -25030.62, -24144.76, 0.000, 0.000, 0.000, 10:36:25.130, 1583739385130
41, -26945.41, -32184.97, -21438.54, -17116.05, -21323.83, -21810.81, -24647.36, -23754.76, 0.000, 0.000, 0.000, 10:36:25.130, 1583739385130
42, -26435.34, -32147.37, -21280.00, -16963.34, -20632.45, -21701.13, -24412.22, -23421.21, 0.000, 0.000, 0.000, 10:36:25.130, 1583739385130
43, -26848.94, -32212.93, -21351.28, -16997.65, -21008.47, -21722.74, -24658.04, -23600.07, 0.000, 0.000, 0.000, 10:36:25.131, 1583739385131
44, -27514.64, -32264.41, -21555.08, -17238.83, -21933.81, -21916.13, -25000.47, -24025.76, 0.000, 0.000, 0.000, 10:36:25.131, 1583739385131
45, -27638.18, -32262.26, -21618.12, -17285.10, -22147.58, -21932.56, -25029.84, -24142.59, 0.008, -0.018, 0.966, 10:36:25.131, 1583739385131
46, -26945.52, -32185.66, -21449.29, -17126.29, -21340.75, -21821.43, -24653.50, -23761.45, 0.000, 0.000, 0.000, 10:36:25.131, 1583739385131
47, -26435.56, -32151.29, -21293.32, -16973.04, -20651.42, -21715.52, -24422.16, -23431.42, 0.000, 0.000, 0.000, 10:36:25.131, 1583739385131
48, -26846.37, -32213.04, -21360.80, -17004.58, -21022.60, -21736.02, -24666.65, -23608.20, 0.000, 0.000, 0.000, 10:36:25.131, 1583739385131
49, -27510.19, -32261.17, -21559.53, -17236.12, -21942.62, -21921.41, -25004.92, -24029.82, 0.000, 0.000, 0.000, 10:36:25.131, 1583739385131
50, -27641.22, -32264.63, -21624.62, -17290.95, -22161.60, -21941.03, -25036.43, -24152.65, 0.000, 0.000, 0.000, 10:36:25.131, 1583739385131
51, -26951.98, -32188.61, -21458.48, -17136.19, -21356.44, -21829.88, -24662.58, -23771.39, 0.000, 0.000, 0.000, 10:36:25.131, 1583739385131
52, -26445.40, -32156.47, -21312.92, -17001.79, -20670.31, -21734.21, -24436.74, -23446.53, 0.000, 0.000, 0.000, 10:36:25.132, 1583739385132
53, -26854.79, -32220.08, -21375.91, -17020.99, -21034.27, -21747.08, -24679.81, -23619.47, 0.000, 0.000, 0.000, 10:36:25.132, 1583739385132
54, -27516.99, -32269.50, -21566.24, -17238.65, -21945.32, -21923.57, -25012.96, -24034.32, 0.000, 0.000, 0.000, 10:36:25.132, 1583739385132
55, -27642.78, -32267.38, -21625.89, -17285.32, -22159.09, -21936.22, -25037.13, -24148.98, 0.008, -0.020, 0.966, 10:36:25.132, 1583739385132
56, -26950.62, -32189.75, -21456.94, -17127.72, -21352.35, -21823.37, -24660.95, -23766.34, 0.000, 0.000, 0.000, 10:36:25.132, 1583739385132
57, -26432.68, -32149.54, -21300.36, -16977.98, -20653.73, -21715.48, -24423.68, -23431.65, 0.000, 0.000, 0.000, 10:36:25.132, 1583739385132
58, -26845.07, -32214.58, -21374.23, -17020.12, -21025.71, -21741.70, -24670.65, -23612.70, 0.000, 0.000, 0.000, 10:36:25.132, 1583739385132
59, -27512.02, -32264.85, -21570.80, -17252.57, -21944.29, -21928.18, -25008.34, -24033.18, 0.000, 0.000, 0.000, 10:36:25.132, 1583739385132
60, -27640.14, -32263.38, -21618.94, -17289.28, -22153.71, -21934.93, -25028.39, -24145.16, 0.000, 0.000, 0.000, 10:36:25.132, 1583739385132
61, -26954.44, -32189.37, -21448.09, -17125.46, -21346.34, -21820.60, -24651.65, -23764.15, 0.000, 0.000, 0.000, 10:36:25.132, 1583739385132
62, -26429.42, -32145.76, -21287.85, -16968.73, -20643.42, -21709.94, -24411.75, -23423.20, 0.000, 0.000, 0.000, 10:36:25.133, 1583739385133
63, -26833.80, -32210.36, -21360.55, -17003.31, -21011.47, -21732.35, -24657.91, -23600.02, 0.000, 0.000, 0.000, 10:36:25.133, 1583739385133
64, -27502.08, -32265.17, -21565.74, -17238.65, -21938.15, -21922.12, -25001.77, -24025.17, 0.000, 0.000, 0.000, 10:36:25.133, 1583739385133
65, -27638.91, -32267.02, -21624.93, -17285.21, -22158.20, -21935.17, -25032.08, -24145.87, 0.004, -0.016, 0.970, 10:36:25.133, 1583739385133
66, -26950.03, -32185.88, -21444.06, -17121.39, -21347.73, -21814.18, -24650.98, -23760.19, 0.000, 0.000, 0.000, 10:36:25.133, 1583739385133
67, -26430.91, -32148.98, -21283.26, -16961.26, -20646.44, -21701.55, -24413.24, -23420.60, 0.000, 0.000, 0.000, 10:36:25.133, 1583739385133
68, -26835.93, -32214.38, -21351.48, -16990.32, -21005.70, -21720.17, -24653.55, -23593.32, 0.000, 0.000, 0.000, 10:36:25.133, 1583739385133
69, -27504.96, -32267.67, -21555.73, -17234.04, -21929.68, -21914.03, -24995.55, -24021.15, 0.000, 0.000, 0.000, 10:36:25.133, 1583739385133
70, -27643.21, -32268.97, -21618.34, -17284.31, -22154.82, -21931.69, -25029.17, -24146.05, 0.000, 0.000, 0.000, 10:36:25.133, 1583739385133
71, -26957.25, -32192.95, -21446.10, -17116.99, -21352.11, -21814.12, -24655.36, -23763.19, 0.000, 0.000, 0.000, 10:36:25.133, 1583739385133
72, -26433.87, -32156.92, -21291.96, -16970.72, -20653.10, -21712.42, -24417.92, -23428.11, 0.000, 0.000, 0.000, 10:36:25.134, 1583739385134
73, -26833.07, -32217.13, -21356.11, -17000.42, -21006.82, -21728.96, -24656.05, -23597.72, 0.000, 0.000, 0.000, 10:36:25.134, 1583739385134
74, -27504.87, -32270.04, -21556.09, -17236.32, -21929.23, -21918.10, -24999.02, -24021.89, 0.000, 0.000, 0.000, 10:36:25.134, 1583739385134
75, -27642.89, -32270.24, -21620.86, -17291.35, -22162.40, -21939.06, -25034.78, -24146.83, 0.000, 0.000, 0.000, 10:36:25.134, 1583739385134
76, -26958.30, -32193.64, -21451.06, -17126.82, -21362.32, -21823.77, -24660.92, -23767.46, 0.004, -0.018, 0.970, 10:36:25.134, 1583739385134
77, -26437.40, -32152.36, -21295.02, -16969.27, -20658.76, -21715.68, -24424.40, -23429.39, 0.000, 0.000, 0.000, 10:36:25.134, 1583739385134
78, -26838.88, -32216.73, -21364.47, -17008.16, -21015.87, -21737.36, -24667.99, -23603.26, 0.000, 0.000, 0.000, 10:36:25.134, 1583739385134
79, -27511.73, -32275.47, -21573.46, -17259.41, -21943.13, -21936.92, -25017.66, -24036.04, 0.000, 0.000, 0.000, 10:36:25.134, 1583739385134
80, -27650.27, -32273.48, -21633.83, -17303.29, -22173.13, -21948.99, -25047.90, -24156.65, 0.000, 0.000, 0.000, 10:36:25.134, 1583739385134
81, -26965.19, -32193.11, -21462.32, -17129.17, -21371.15, -21825.29, -24670.71, -23771.19, 0.000, 0.000, 0.000, 10:36:25.134, 1583739385134
82, -26436.90, -32153.92, -21296.52, -16972.01, -20656.48, -21713.40, -24424.26, -23426.57, 0.000, 0.000, 0.000, 10:36:25.135, 1583739385135
83, -26833.76, -32216.98, -21357.47, -17001.09, -21003.02, -21728.31, -24660.21, -23595.39, 0.000, 0.000, 0.000, 10:36:25.135, 1583739385135
84, -27495.84, -32260.14, -21553.63, -17232.55, -21921.67, -21912.04, -24997.38, -24014.24, 0.000, 0.000, 0.000, 10:36:25.135, 1583739385135
85, -27641.60, -32262.04, -21622.36, -17286.21, -22161.42, -21932.43, -25035.32, -24143.95, 0.000, 0.000, 0.000, 10:36:25.135, 1583739385135
86, -26956.20, -32179.87, -21445.20, -17118.89, -21358.05, -21813.20, -24655.47, -23763.10, 0.004, -0.018, 0.972, 10:36:25.135, 1583739385135
87, -26428.43, -32144.06, -21280.96, -16960.08, -20643.00, -21701.40, -24408.28, -23418.68, 0.000, 0.000, 0.000, 10:36:25.135, 1583739385135
88, -26829.09, -32215.32, -21351.26, -16997.76, -20994.23, -21724.87, -24651.45, -23591.55, 0.000, 0.000, 0.000, 10:36:25.135, 1583739385135
89, -27498.50, -32269.84, -21553.81, -17234.69, -21919.28, -21917.25, -24998.17, -24018.45, 0.000, 0.000, 0.000, 10:36:25.136, 1583739385136
90, -27646.85, -32269.70, -21624.73, -17288.65, -22164.44, -21938.77, -25039.21, -24148.31, 0.000, 0.000, 0.000, 10:36:25.136, 1583739385136
91, -26969.97, -32194.24, -21452.49, -17131.96, -21368.40, -21825.58, -24666.09, -23775.19, 0.000, 0.000, 0.000, 10:36:25.136, 1583739385136
92, -26436.19, -32154.03, -21291.94, -16978.14, -20655.74, -21714.72, -24421.27, -23431.94, 0.000, 0.000, 0.000, 10:36:25.136, 1583739385136
93, -26827.21, -32215.12, -21356.06, -17007.49, -20999.29, -21730.50, -24658.24, -23597.54, 0.000, 0.000, 0.000, 10:36:25.136, 1583739385136
94, -27494.23, -32263.60, -21546.43, -17232.43, -21912.40, -21911.97, -24994.48, -24014.80, 0.000, 0.000, 0.000, 10:36:25.136, 1583739385136
95, -27645.55, -32266.73, -21613.49, -17282.41, -22157.89, -21930.66, -25035.41, -24145.31, 0.000, 0.000, 0.000, 10:36:25.136, 1583739385136
96, -26970.11, -32193.89, -21453.27, -17125.79, -21369.99, -21819.68, -24666.96, -23773.67, 0.000, -0.018, 0.974, 10:36:25.137, 1583739385137
97, -26434.04, -32153.72, -21294.46, -16971.03, -20652.21, -21710.23, -24420.42, -23429.10, 0.000, 0.000, 0.000, 10:36:25.137, 1583739385137
98, -26823.75, -32217.56, -21353.63, -16996.45, -20988.98, -21723.62, -24655.58, -23592.13, 0.000, 0.000, 0.000, 10:36:25.137, 1583739385137
99, -27494.59, -32270.20, -21554.52, -17236.32, -21913.81, -21914.68, -25001.70, -24018.33, 0.000, 0.000, 0.000, 10:36:25.137, 1583739385137
100, -27649.24, -32276.16, -21628.44, -17293.57, -22167.39, -21936.63, -25047.59, -24151.33, 0.000, 0.000, 0.000, 10:36:25.138, 1583739385138
101, -26973.73, -32202.96, -21461.76, -17128.34, -21377.61, -21820.11, -24676.79, -23776.49, 0.000, 0.000, 0.000, 10:36:25.138, 1583739385138
102, -26430.40, -32149.09, -21295.56, -16972.28, -20654.89, -21707.10, -24422.10, -23425.92, 0.000, 0.000, 0.000, 10:36:25.138, 1583739385138
103, -26823.03, -32212.37, -21361.79, -17005.74, -20994.63, -21727.19, -24658.00, -23593.23, 0.000, 0.000, 0.000, 10:36:25.138, 1583739385138
104, -27500.04, -32273.32, -21567.76, -17243.65, -21920.85, -21921.03, -25008.47, -24021.84, 0.000, 0.000, 0.000, 10:36:25.138, 1583739385138
105, -27656.95, -32277.37, -21635.41, -17296.40, -22170.29, -21940.16, -25049.02, -24154.88, 0.000, 0.000, 0.000, 10:36:25.603, 1583739385603
106, -26980.95, -32200.84, -21456.02, -17127.38, -21373.27, -21818.52, -24673.35, -23777.88, 0.000, -0.016, 0.974, 10:36:25.604, 1583739385604
107, -26432.75, -32153.59, -21285.74, -16966.40, -20648.27, -21704.04, -24416.98, -23426.01, 0.000, 0.000, 0.000, 10:36:25.605, 1583739385605
108, -26820.51, -32218.29, -21350.43, -16997.61, -20985.29, -21722.14, -24649.95, -23590.99, 0.000, 0.000, 0.000, 10:36:25.605, 1583739385605
109, -27490.66, -32271.71, -21548.78, -17231.25, -21904.96, -21910.50, -24990.54, -24013.60, 0.000, 0.000, 0.000, 10:36:25.605, 1583739385605
110, -27644.32, -32271.00, -21619.70, -17291.35, -22159.34, -21934.06, -25032.66, -24149.29, 0.000, 0.000, 0.000, 10:36:25.605, 1583739385605
111, -26973.88, -32196.68, -21457.52, -17136.81, -21377.10, -21823.57, -24666.76, -23780.31, 0.000, 0.000, 0.000, 10:36:25.605, 1583739385605
112, -26435.88, -32157.45, -21291.78, -16976.37, -20652.77, -21711.05, -24417.13, -23429.59, 0.000, 0.000, 0.000, 10:36:25.607, 1583739385607
113, -26820.66, -32220.91, -21352.15, -16996.87, -20983.93, -21721.02, -24649.79, -23587.93, 0.000, 0.000, 0.000, 10:36:25.607, 1583739385607
114, -27495.46, -32275.65, -21559.02, -17236.48, -21912.31, -21916.18, -24997.05, -24017.53, 0.000, 0.000, 0.000, 10:36:25.607, 1583739385607
115, -27656.75, -32276.05, -21628.24, -17294.79, -22170.02, -21939.89, -25042.33, -24154.08, 0.000, 0.000, 0.000, 10:36:25.607, 1583739385607
116, -26983.83, -32198.74, -21455.64, -17128.95, -21378.95, -21820.04, -24670.22, -23777.16, 0.000, -0.018, 0.978, 10:36:25.607, 1583739385607
117, -26437.91, -32156.27, -21289.07, -16966.11, -20653.17, -21705.35, -24419.01, -23424.83, 0.000, 0.000, 0.000, 10:36:25.607, 1583739385607
118, -26818.56, -32220.51, -21350.18, -16990.23, -20980.06, -21717.40, -24650.75, -23584.42, 0.000, 0.000, 0.000, 10:36:25.607, 1583739385607
119, -27494.25, -32279.88, -21557.56, -17235.79, -21908.87, -21914.41, -24998.32, -24014.69, 0.000, 0.000, 0.000, 10:36:25.607, 1583739385607
120, -27659.08, -32281.86, -21629.74, -17296.83, -22169.15, -21938.88, -25044.59, -24152.47, 0.000, 0.000, 0.000, 10:36:25.607, 1583739385607
121, -26986.11, -32201.40, -21458.26, -17124.54, -21380.49, -21815.93, -24670.67, -23773.47, 0.000, 0.000, 0.000, 10:36:25.607, 1583739385607
122, -26444.28, -32162.53, -21297.26, -16971.59, -20660.37, -21709.78, -24420.84, -23426.82, 0.000, 0.000, 0.000, 10:36:25.607, 1583739385607
123, -26823.46, -32223.97, -21355.35, -16999.71, -20989.27, -21723.77, -24652.21, -23586.97, 0.000, 0.000, 0.000, 10:36:25.607, 1583739385607
124, -27497.94, -32281.44, -21556.11, -17235.47, -21911.91, -21914.41, -24998.88, -24015.14, 0.000, 0.000, 0.000, 10:36:25.607, 1583739385607
125, -27662.99, -32282.04, -21625.92, -17290.86, -22174.56, -21940.18, -25048.86, -24156.51, 0.000, 0.000, 0.000, 10:36:25.607, 1583739385607
126, -26995.25, -32205.24, -21464.65, -17136.88, -21395.96, -21830.41, -24683.01, -23790.50, 0.000, -0.020, 0.974, 10:36:25.607, 1583739385607
127, -26448.77, -32168.72, -21304.65, -16981.16, -20668.75, -21721.36, -24430.61, -23440.18, 0.000, 0.000, 0.000, 10:36:25.607, 1583739385607
128, -26821.62, -32229.34, -21361.54, -16999.35, -20986.37, -21727.64, -24655.16, -23591.88, 0.000, 0.000, 0.000, 10:36:25.607, 1583739385607
129, -27495.01, -32282.45, -21561.86, -17238.04, -21908.22, -21919.64, -25001.45, -24019.21, 0.000, 0.000, 0.000, 10:36:25.608, 1583739385608
130, -27664.13, -32284.12, -21637.14, -17301.19, -22182.34, -21947.89, -25051.43, -24163.17, 0.000, 0.000, 0.000, 10:36:25.608, 1583739385608
131, -26994.02, -32203.41, -21463.57, -17137.10, -21398.64, -21828.47, -24678.20, -23790.64, 0.000, 0.000, 0.000, 10:36:25.608, 1583739385608
132, -26443.39, -32162.26, -21299.09, -16982.41, -20666.22, -21719.10, -24425.34, -23438.64, 0.000, 0.000, 0.000, 10:36:25.608, 1583739385608
133, -26813.40, -32221.40, -21357.54, -17008.36, -20979.73, -21729.29, -24652.92, -23590.83, 0.000, 0.000, 0.000, 10:36:25.608, 1583739385608
134, -27484.35, -32271.67, -21558.90, -17246.54, -21903.55, -21920.13, -24997.45, -24016.23, 0.000, 0.000, 0.000, 10:36:25.608, 1583739385608
135, -27653.15, -32273.48, -21632.76, -17303.33, -22175.08, -21943.94, -25047.50, -24158.08, 0.000, 0.000, 0.000, 10:36:25.608, 1583739385608
136, -26990.98, -32205.73, -21464.27, -17135.00, -21392.52, -21823.13, -24678.05, -23786.66, 0.004, -0.020, 0.970, 10:36:25.608, 1583739385608
137, -26436.75, -32160.98, -21293.08, -16971.05, -20652.54, -21707.77, -24412.96, -23427.29, 0.000, 0.000, 0.000, 10:36:25.608, 1583739385608
138, -26808.19, -32221.29, -21352.42, -16996.20, -20968.19, -21720.22, -24639.11, -23581.60, 0.000, 0.000, 0.000, 10:36:25.609, 1583739385609
139, -27485.18, -32277.37, -21560.98, -17239.95, -21898.85, -21915.86, -24991.82, -24012.21, 0.000, 0.000, 0.000, 10:36:25.619, 1583739385619
140, -27659.01, -32280.63, -21629.98, -17303.31, -22172.39, -21941.05, -25041.22, -24155.64, 0.000, 0.000, 0.000, 10:36:25.620, 1583739385620
141, -26992.68, -32200.53, -21457.18, -17139.45, -21390.73, -21822.28, -24670.13, -23784.98, 0.000, 0.000, 0.000, 10:36:25.620, 1583739385620
142, -26438.02, -32159.51, -21292.25, -16983.30, -20655.11, -21715.52, -24415.21, -23431.31, 0.000, 0.000, 0.000, 10:36:25.620, 1583739385620
143, -26804.28, -32220.46, -21347.30, -16996.40, -20963.50, -21720.62, -24640.14, -23579.23, 0.000, 0.000, 0.000, 10:36:25.620, 1583739385620
144, -27474.56, -32271.36, -21539.12, -17215.96, -21883.81, -21898.99, -24980.69, -23997.03, 0.000, 0.000, 0.000, 10:36:25.621, 1583739385621
145, -27650.31, -32275.05, -21615.25, -17278.23, -22166.29, -21926.68, -25035.88, -24146.14, 0.000, 0.000, 0.000, 10:36:25.621, 1583739385621
146, -26994.16, -32201.35, -21460.07, -17132.10, -21396.47, -21821.61, -24675.25, -23788.00, 0.006, -0.018, 0.966, 10:36:25.621, 1583739385621
147, -26440.88, -32162.19, -21297.41, -16979.53, -20661.48, -21714.74, -24417.07, -23434.69, 0.000, 0.000, 0.000, 10:36:25.621, 1583739385621
148, -26807.77, -32223.41, -21354.56, -17000.85, -20970.32, -21724.46, -24642.95, -23584.31, 0.000, 0.000, 0.000, 10:36:25.621, 1583739385621
149, -27486.79, -32278.58, -21556.42, -17237.89, -21898.09, -21916.60, -24992.27, -24011.96, 0.000, 0.000, 0.000, 10:36:25.622, 1583739385622
150, -27667.86, -32288.97, -21632.06, -17301.75, -22180.42, -21944.94, -25047.16, -24161.32, 0.000, 0.000, 0.000, 10:36:25.622, 1583739385622
151, -27003.07, -32208.15, -21463.57, -17136.66, -21404.28, -21823.73, -24680.35, -23789.43, 0.000, 0.000, 0.000, 10:36:25.622, 1583739385622
152, -26444.93, -32168.38, -21302.15, -16982.05, -20667.03, -21717.67, -24422.95, -23437.30, 0.000, 0.000, 0.000, 10:36:25.622, 1583739385622
153, -26809.15, -32229.58, -21354.32, -16997.88, -20969.71, -21723.01, -24642.84, -23584.38, 0.000, 0.000, 0.000, 10:36:25.623, 1583739385623
154, -27485.34, -32282.67, -21549.14, -17221.62, -21890.25, -21905.40, -24988.62, -24004.54, 0.000, 0.000, 0.000, 10:36:25.623, 1583739385623
155, -27662.32, -32283.49, -21621.06, -17282.03, -22174.32, -21931.62, -25042.36, -24151.28, 0.000, 0.000, 0.000, 10:36:25.623, 1583739385623
156, -27008.30, -32210.81, -21463.87, -17134.04, -21409.37, -21825.81, -24681.91, -23793.61, 0.008, -0.016, 0.968, 10:36:25.623, 1583739385623
157, -26446.40, -32165.05, -21299.83, -16979.35, -20663.56, -21716.89, -24419.66, -23434.44, 0.000, 0.000, 0.000, 10:36:25.623, 1583739385623
158, -26804.03, -32221.56, -21352.06, -16994.57, -20960.64, -21719.50, -24640.38, -23575.70, 0.000, 0.000, 0.000, 10:36:25.623, 1583739385623
159, -27476.35, -32272.88, -21549.00, -17222.58, -21884.75, -21903.32, -24986.72, -23997.08, 0.000, 0.000, 0.000, 10:36:25.624, 1583739385624
160, -27664.62, -32281.86, -21628.93, -17295.42, -22179.21, -21940.49, -25048.50, -24155.69, 0.000, 0.000, 0.000, 10:36:25.624, 1583739385624
161, -27006.34, -32202.72, -21460.63, -17137.75, -21405.57, -21824.29, -24679.10, -23791.38, 0.000, 0.000, 0.000, 10:36:25.624, 1583739385624
162, -26443.05, -32159.98, -21290.88, -16977.40, -20656.97, -21712.21, -24416.29, -23430.75, 0.000, 0.000, 0.000, 10:36:25.624, 1583739385624
163, -26804.46, -32224.04, -21350.07, -17000.94, -20957.91, -21721.92, -24641.43, -23579.21, 0.000, 0.000, 0.000, 10:36:25.624, 1583739385624
164, -27479.26, -32277.53, -21546.79, -17231.65, -21881.11, -21908.89, -24985.92, -24002.40, 0.000, 0.000, 0.000, 10:36:25.625, 1583739385625
165, -27664.48, -32278.51, -21622.21, -17292.00, -22173.15, -21935.04, -25041.80, -24153.52, 0.000, 0.000, 0.000, 10:36:25.625, 1583739385625
166, -27012.66, -32204.37, -21456.45, -17132.52, -21404.21, -21818.72, -24677.15, -23789.97, 0.000, 0.000, 0.000, 10:36:25.625, 1583739385625
167, -26446.40, -32160.56, -21287.94, -16970.25, -20656.61, -21708.30, -24411.37, -23428.99, 0.010, -0.016, 0.968, 10:36:25.625, 1583739385625
168, -26801.13, -32221.40, -21343.70, -16991.04, -20950.87, -21718.32, -24633.66, -23573.96, 0.000, 0.000, 0.000, 10:36:25.625, 1583739385625
169, -27475.43, -32276.28, -21545.31, -17227.70, -21878.00, -21907.55, -24984.20, -24000.79, 0.000, 0.000, 0.000, 10:36:25.626, 1583739385626
170, -27663.43, -32282.45, -21626.99, -17297.50, -22178.47, -21940.56, -25046.98, -24158.14, 0.000, 0.000, 0.000, 10:36:25.626, 1583739385626
171, -27011.63, -32208.15, -21470.15, -17146.94, -21418.13, -21831.66, -24688.06, -23802.30, 0.000, 0.000, 0.000, 10:36:25.626, 1583739385626
172, -26440.82, -32158.77, -21300.23, -16988.44, -20666.33, -21720.31, -24420.31, -23440.27, 0.000, 0.000, 0.000, 10:36:25.626, 1583739385626
173, -26796.05, -32219.77, -21345.60, -16994.79, -20954.04, -21721.49, -24637.54, -23579.39, 0.000, 0.000, 0.000, 10:36:25.626, 1583739385626
174, -27473.76, -32273.95, -21541.76, -17215.25, -21876.23, -21902.27, -24982.34, -23998.33, 0.000, 0.000, 0.000, 10:36:25.627, 1583739385627
175, -27661.69, -32273.82, -21621.76, -17283.60, -22174.18, -21931.89, -25040.39, -24150.52, 0.000, 0.000, 0.000, 10:36:25.627, 1583739385627
176, -27011.99, -32200.06, -21463.17, -17136.28, -21416.55, -21823.57, -24683.99, -23795.62, 0.000, 0.000, 0.000, 10:36:25.627, 1583739385627
177, -26438.92, -32154.10, -21295.27, -16980.04, -20665.80, -21712.77, -24416.20, -23431.56, 0.004, -0.016, 0.970, 10:36:25.627, 1583739385627
178, -26795.20, -32220.37, -21352.71, -16997.16, -20957.93, -21721.92, -24638.69, -23575.99, 0.000, 0.000, 0.000, 10:36:25.627, 1583739385627
179, -27473.42, -32274.71, -21549.94, -17224.83, -21879.99, -21906.54, -24983.04, -23998.38, 0.000, 0.000, 0.000, 10:36:25.628, 1583739385628
180, -27662.65, -32277.62, -21632.82, -17299.15, -22185.40, -21938.64, -25046.16, -24153.79, 0.000, 0.000, 0.000, 10:36:25.628, 1583739385628
181, -27013.78, -32201.46, -21469.99, -17139.81, -21424.44, -21822.14, -24685.06, -23792.54, 0.000, 0.000, 0.000, 10:36:25.628, 1583739385628
182, -26438.92, -32151.44, -21287.62, -16959.65, -20659.31, -21697.15, -24407.14, -23418.88, 0.000, 0.000, 0.000, 10:36:25.628, 1583739385628
183, -26789.15, -32215.21, -21338.12, -16978.29, -20940.16, -21701.89, -24622.10, -23556.55, 0.000, 0.000, 0.000, 10:36:25.629, 1583739385629
184, -27470.16, -32275.34, -21543.42, -17222.15, -21868.95, -21897.85, -24974.32, -23987.58, 0.000, 0.000, 0.000, 10:36:25.629, 1583739385629
185, -27663.46, -32275.05, -21623.93, -17294.59, -22177.09, -21933.21, -25039.34, -24148.13, 0.000, 0.000, 0.000, 10:36:25.629, 1583739385629
186, -27015.93, -32199.72, -21462.14, -17133.75, -21420.19, -21819.44, -24680.62, -23789.70, 0.000, 0.000, 0.000, 10:36:25.629, 1583739385629
187, -26441.15, -32153.32, -21290.51, -16966.02, -20661.82, -21704.97, -24408.55, -23423.49, 0.002, -0.020, 0.972, 10:36:25.629, 1583739385629
188, -26784.70, -32213.51, -21340.80, -16979.88, -20940.52, -21709.40, -24623.89, -23561.67, 0.000, 0.000, 0.000, 10:36:25.630, 1583739385630
189, -27463.86, -32271.40, -21540.08, -17217.08, -21868.21, -21900.35, -24975.59, -23989.10, 0.000, 0.000, 0.000, 10:36:25.630, 1583739385630
190, -27666.00, -32277.55, -21622.79, -17290.66, -22183.28, -21936.31, -25043.32, -24152.18, 0.000, 0.000, 0.000, 10:36:25.630, 1583739385630
191, -27022.74, -32200.91, -21465.99, -17136.43, -21430.76, -21823.30, -24685.51, -23796.72, 0.000, 0.000, 0.000, 10:36:25.630, 1583739385630
192, -26442.22, -32153.77, -21296.27, -16976.71, -20671.25, -21711.66, -24413.56, -23429.57, 0.000, 0.000, 0.000, 10:36:25.630, 1583739385630
193, -26783.33, -32210.45, -21340.13, -16982.18, -20940.37, -21708.46, -24624.80, -23558.69, 0.000, 0.000, 0.000, 10:36:25.631, 1583739385631
194, -27465.96, -32269.53, -21544.87, -17220.65, -21866.31, -21901.45, -24977.78, -23986.39, 0.000, 0.000, 0.000, 10:36:25.631, 1583739385631
195, -27665.87, -32274.38, -21628.53, -17295.49, -22181.87, -21937.50, -25042.33, -24148.85, 0.000, 0.000, 0.000, 10:36:25.631, 1583739385631
196, -27022.25, -32200.21, -21471.04, -17142.58, -21429.06, -21825.90, -24685.58, -23796.05, 0.000, 0.000, 0.000, 10:36:25.633, 1583739385633
197, -26442.25, -32154.48, -21295.04, -16977.31, -20665.26, -21711.99, -24407.14, -23427.35, -0.002, -0.022, 0.976, 10:36:25.633, 1583739385633
198, -26781.77, -32211.90, -21338.99, -16984.11, -20934.06, -21709.60, -24615.24, -23556.41, 0.000, 0.000, 0.000, 10:36:25.633, 1583739385633
199, -27459.32, -32266.98, -21536.51, -17218.62, -21857.01, -21898.52, -24964.26, -23980.87, 0.000, 0.000, 0.000, 10:36:25.633, 1583739385633
200, -27669.20, -32278.51, -21624.44, -17292.76, -22180.02, -21936.81, -25038.94, -24148.80, 0.000, 0.000, 0.000, 10:36:25.633, 1583739385633
201, -27031.69, -32205.73, -21472.67, -17142.36, -21435.79, -21827.91, -24688.89, -23800.12, 0.000, 0.000, 0.000, 10:36:25.633, 1583739385633
202, -26449.06, -32154.95, -21302.82, -16974.50, -20672.50, -21713.62, -24415.30, -23428.72, 0.000, 0.000, 0.000, 10:36:25.633, 1583739385633
203, -26784.23, -32213.27, -21346.25, -16982.45, -20937.41, -21711.37, -24625.68, -23557.33, 0.000, 0.000, 0.000, 10:36:25.633, 1583739385633
204, -27462.25, -32272.50, -21543.84, -17219.87, -21860.25, -21902.41, -24975.64, -23984.45, 0.000, 0.000, 0.000, 10:36:25.634, 1583739385634
205, -27671.82, -32280.59, -21632.44, -17301.41, -22188.17, -21944.85, -25045.60, -24155.53, 0.000, 0.000, 0.000, 10:36:25.634, 1583739385634
206, -27036.33, -32209.78, -21477.46, -17143.59, -21441.36, -21832.65, -24690.21, -23803.91, 0.000, 0.000, 0.000, 10:36:25.634, 1583739385634
207, -26448.93, -32164.81, -21304.16, -16981.16, -20675.03, -21720.82, -24412.71, -23432.41, 0.000, -0.022, 0.968, 10:36:25.634, 1583739385634
208, -26787.20, -32226.07, -21351.37, -16993.12, -20940.95, -21722.99, -24625.41, -23564.82, 0.000, 0.000, 0.000, 10:36:25.634, 1583739385634
209, -27469.82, -32283.83, -21549.34, -17224.01, -21865.59, -21909.63, -24978.83, -23990.98, 0.000, 0.000, 0.000, 10:36:25.634, 1583739385634
210, -27680.49, -32289.17, -21633.83, -17297.19, -22193.87, -21945.66, -25050.72, -24158.50, 0.000, 0.000, 0.000, 10:36:25.634, 1583739385634
211, -27044.43, -32214.70, -21475.60, -17142.76, -21448.80, -21833.70, -24695.64, -23808.38, 0.000, 0.000, 0.000, 10:36:25.634, 1583739385634
212, -26451.63, -32161.28, -21296.34, -16974.05, -20673.78, -21716.15, -24411.90, -23431.91, 0.000, 0.000, 0.000, 10:36:25.636, 1583739385636
213, -26785.41, -32220.91, -21344.19, -16986.03, -20934.78, -21716.87, -24622.08, -23562.34, 0.000, 0.000, 0.000, 10:36:25.636, 1583739385636
214, -27465.91, -32278.58, -21542.16, -17222.06, -21859.38, -21905.47, -24975.32, -23989.05, 0.000, 0.000, 0.000, 10:36:25.636, 1583739385636
215, -27675.84, -32284.34, -21632.04, -17302.73, -22189.63, -21945.70, -25049.98, -24158.79, 0.000, 0.000, 0.000, 10:36:25.636, 1583739385636
216, -27041.90, -32211.81, -21473.92, -17143.85, -21441.94, -21829.96, -24695.79, -23806.06, 0.000, 0.000, 0.000, 10:36:25.636, 1583739385636
217, -26452.19, -32162.79, -21302.82, -16977.96, -20672.72, -21715.30, -24416.75, -23430.24, 0.002, -0.022, 0.968, 10:36:25.636, 1583739385636
218, -26780.03, -32220.84, -21343.14, -16979.48, -20928.56, -21709.69, -24621.16, -23553.46, 0.000, 0.000, 0.000, 10:36:25.636, 1583739385636
219, -27455.03, -32269.86, -21537.51, -17212.43, -21851.49, -21897.49, -24966.79, -23977.97, 0.000, 0.000, 0.000, 10:36:25.636, 1583739385636
220, -27670.21, -32279.11, -21628.15, -17293.48, -22186.47, -21942.06, -25044.28, -24153.56, 0.000, 0.000, 0.000, 10:36:25.636, 1583739385636
221, -27033.70, -32203.72, -21469.43, -17134.42, -21439.64, -21825.94, -24688.26, -23801.90, 0.000, 0.000, 0.000, 10:36:25.636, 1583739385636
222, -26447.86, -32159.20, -21303.83, -16984.80, -20674.29, -21723.19, -24412.69, -23436.61, 0.000, 0.000, 0.000, 10:36:25.636, 1583739385636
223, -26776.16, -32218.90, -21351.48, -16994.75, -20928.25, -21724.29, -24620.22, -23562.67, 0.000, 0.000, 0.000, 10:36:25.636, 1583739385636
224, -27457.71, -32274.73, -21546.95, -17223.96, -21855.63, -21910.99, -24972.96, -23986.53, 0.000, 0.000, 0.000, 10:36:25.636, 1583739385636
225, -27672.62, -32280.52, -21629.31, -17298.62, -22190.19, -21948.05, -25044.93, -24156.85, 0.000, 0.000, 0.000, 10:36:25.636, 1583739385636
226, -27041.92, -32209.87, -21471.02, -17139.29, -21447.97, -21831.78, -24689.98, -23807.65, 0.000, 0.000, 0.000, 10:36:26.088, 1583739386088
227, -26450.47, -32161.19, -21298.37, -16974.18, -20672.41, -21716.11, -24407.48, -23432.83, 0.002, -0.022, 0.974, 10:36:26.088, 1583739386088
228, -26776.25, -32221.92, -21341.60, -16981.76, -20921.16, -21713.09, -24611.37, -23554.76, 0.000, 0.000, 0.000, 10:36:26.089, 1583739386089
229, -27456.14, -32280.41, -21537.27, -17213.28, -21845.41, -21900.60, -24964.08, -23979.89, 0.000, 0.000, 0.000, 10:36:26.089, 1583739386089
230, -27675.68, -32286.89, -21623.14, -17285.16, -22184.13, -21937.90, -25040.50, -24153.14, 0.000, 0.000, 0.000, 10:36:26.089, 1583739386089
231, -27045.05, -32206.67, -21470.82, -17137.98, -21449.20, -21828.91, -24689.71, -23808.00, 0.000, 0.000, 0.000, 10:36:26.089, 1583739386089
232, -26449.60, -32160.27, -21306.60, -16985.47, -20681.35, -21723.03, -24412.24, -23435.87, 0.000, 0.000, 0.000, 10:36:26.089, 1583739386089
233, -26772.43, -32220.20, -21350.25, -16987.21, -20929.14, -21718.68, -24617.23, -23558.07, 0.000, 0.000, 0.000, 10:36:26.089, 1583739386089
234, -27449.21, -32273.48, -21538.23, -17207.54, -21846.33, -21898.47, -24963.97, -23976.69, 0.000, 0.000, 0.000, 10:36:26.089, 1583739386089
235, -27674.83, -32281.57, -21630.88, -17296.16, -22196.04, -21945.48, -25045.26, -24156.38, 0.000, 0.000, 0.000, 10:36:26.090, 1583739386090
236, -27047.60, -32206.52, -21480.63, -17149.06, -21462.39, -21837.03, -24694.47, -23813.48, 0.000, 0.000, 0.000, 10:36:26.090, 1583739386090
237, -26454.05, -32160.49, -21311.65, -16991.57, -20688.37, -21729.38, -24416.55, -23442.22, 0.000, -0.022, 0.974, 10:36:26.090, 1583739386090
238, -26775.42, -32219.01, -21356.67, -16998.10, -20934.69, -21726.30, -24623.15, -23564.64, 0.000, 0.000, 0.000, 10:36:26.090, 1583739386090
239, -27452.21, -32271.92, -21543.48, -17216.30, -21851.78, -21904.48, -24968.28, -23982.24, 0.000, 0.000, 0.000, 10:36:26.090, 1583739386090
240, -27673.56, -32279.76, -21624.89, -17289.83, -22192.85, -21941.01, -25044.84, -24154.43, 0.000, 0.000, 0.000, 10:36:26.090, 1583739386090
241, -27052.03, -32207.77, -21474.86, -17142.20, -21462.12, -21832.04, -24698.19, -23813.46, 0.000, 0.000, 0.000, 10:36:26.090, 1583739386090
242, -26455.72, -32159.15, -21303.65, -16982.27, -20682.20, -21722.12, -24413.92, -23437.41, 0.000, 0.000, 0.000, 10:36:26.090, 1583739386090
243, -26772.00, -32216.80, -21344.73, -16986.61, -20920.20, -21717.00, -24611.26, -23553.91, 0.000, 0.000, 0.000, 10:36:26.090, 1583739386090
244, -27452.50, -32272.28, -21539.75, -17216.30, -21845.32, -21903.50, -24964.13, -23979.20, 0.000, 0.000, 0.000, 10:36:26.090, 1583739386090
245, -27681.83, -32281.44, -21626.68, -17284.58, -22192.58, -21937.88, -25045.98, -24152.74, 0.000, 0.000, 0.000, 10:36:26.090, 1583739386090
246, -27054.24, -32204.71, -21469.81, -17126.29, -21456.71, -21818.12, -24693.56, -23802.69, 0.000, 0.000, 0.000, 10:36:26.091, 1583739386091
247, -26452.01, -32153.79, -21290.71, -16967.43, -20673.08, -21708.01, -24406.85, -23426.46, 0.004, -0.016, 0.976, 10:36:26.091, 1583739386091
248, -26772.05, -32214.70, -21335.21, -16979.59, -20916.09, -21710.83, -24612.60, -23551.25, 0.000, 0.000, 0.000, 10:36:26.091, 1583739386091
249, -27454.18, -32272.56, -21533.13, -17209.55, -21839.91, -21899.34, -24966.43, -23977.03, 0.000, 0.000, 0.000, 10:36:26.091, 1583739386091
250, -27684.18, -32283.47, -21626.97, -17293.41, -22195.01, -21944.70, -25048.24, -24157.36, 0.000, 0.000, 0.000, 10:36:26.091, 1583739386091
251, -27058.98, -32207.99, -21471.98, -17137.82, -21460.74, -21828.40, -24693.89, -23810.24, 0.000, 0.000, 0.000, 10:36:26.091, 1583739386091
252, -26453.31, -32154.79, -21288.96, -16968.30, -20671.36, -21709.78, -24402.27, -23425.92, 0.000, 0.000, 0.000, 10:36:26.091, 1583739386091
253, -26770.10, -32215.99, -21331.81, -16973.22, -20908.54, -21707.21, -24606.83, -23545.77, 0.000, 0.000, 0.000, 10:36:26.091, 1583739386091
254, -27453.39, -32274.51, -21535.50, -17209.77, -21838.64, -21900.06, -24965.49, -23978.71, 0.000, 0.000, 0.000, 10:36:26.091, 1583739386091
255, -27680.18, -32275.89, -21623.28, -17292.56, -22194.57, -21942.95, -25045.46, -24158.57, 0.000, 0.000, 0.000, 10:36:26.091, 1583739386091
0, -27059.83, -32202.20, -21476.76, -17148.35, -21472.11, -21839.02, -24700.51, -23820.95, 0.000, 0.000, 0.000, 10:36:26.091, 1583739386091
1, -26450.43, -32147.53, -21299.89, -16979.17, -20682.20, -21722.79, -24408.04, -23437.66, 0.000, 0.000, 0.000, 10:36:26.091, 1583739386091
2, -26761.63, -32208.84, -21343.23, -16981.09, -20916.43, -21717.98, -24609.07, -23552.79, -0.002, -0.012, 0.976, 10:36:26.092, 1583739386092
3, -27444.61, -32267.83, -21542.43, -17213.05, -21843.26, -21908.89, -24967.03, -23980.18, 0.000, 0.000, 0.000, 10:36:26.092, 1583739386092
4, -27680.42, -32277.75, -21637.18, -17301.84, -22205.45, -21958.15, -25054.61, -24166.15, 0.000, 0.000, 0.000, 10:36:26.092, 1583739386092
5, -27059.18, -32201.42, -21483.65, -17152.50, -21476.18, -21844.90, -24703.75, -23823.05, 0.000, 0.000, 0.000, 10:36:26.092, 1583739386092
6, -26454.43, -32150.73, -21310.44, -16992.96, -20691.59, -21735.39, -24415.75, -23445.59, 0.000, 0.000, 0.000, 10:36:26.092, 1583739386092
7, -26768.65, -32215.26, -21352.51, -16996.00, -20923.62, -21731.28, -24617.34, -23562.07, 0.000, 0.000, 0.000, 10:36:26.092, 1583739386092
8, -27442.15, -32264.45, -21536.42, -17212.70, -21836.51, -21904.46, -24960.73, -23973.68, 0.000, 0.000, 0.000, 10:36:26.092, 1583739386092
9, -27677.07, -32272.39, -21628.58, -17297.10, -22199.60, -21947.71, -25047.92, -24155.57, 0.000, 0.000, 0.000, 10:36:26.092, 1583739386092
10, -27064.86, -32202.13, -21482.73, -17153.51, -21480.14, -21841.36, -24706.43, -23821.62, 0.000, 0.000, 0.000, 10:36:26.092, 1583739386092
11, -26455.46, -32151.96, -21302.53, -16984.33, -20686.05, -21724.04, -24413.18, -23436.85, 0.000, 0.000, 0.000, 10:36:26.092, 1583739386092
12, -26758.99, -32207.61, -21336.17, -16973.65, -20905.18, -21707.92, -24604.42, -23540.57, -0.002, -0.020, 0.970, 10:36:26.092, 1583739386092
13, -27442.42, -32262.51, -21533.47, -17208.59, -21829.58, -21896.26, -24959.07, -23965.90, 0.000, 0.000, 0.000, 10:36:26.093, 1583739386093
14, -27677.27, -32272.30, -21621.31, -17291.80, -22192.85, -21938.06, -25042.87, -24148.58, 0.000, 0.000, 0.000, 10:36:26.093, 1583739386093
15, -27062.62, -32200.03, -21468.96, -17138.74, -21469.54, -21823.37, -24695.82, -23808.54, 0.000, 0.000, 0.000, 10:36:26.093, 1583739386093
16, -26454.67, -32149.59, -21299.07, -16982.32, -20682.49, -21717.76, -24410.16, -23430.21, 0.000, 0.000, 0.000, 10:36:26.093, 1583739386093
17, -26758.55, -32205.98, -21343.08, -16985.56, -20906.26, -21713.00, -24606.30, -23543.11, 0.000, 0.000, 0.000, 10:36:26.093, 1583739386093
18, -27438.69, -32259.94, -21537.89, -17210.13, -21826.37, -21895.48, -24955.25, -23965.25, 0.000, 0.000, 0.000, 10:36:26.093, 1583739386093
19, -27683.98, -32274.51, -21623.99, -17296.67, -22193.38, -21943.96, -25042.71, -24153.27, 0.000, 0.000, 0.000, 10:36:26.093, 1583739386093
20, -27067.38, -32201.53, -21472.11, -17146.96, -21474.59, -21832.60, -24696.31, -23816.32, 0.000, 0.000, 0.000, 10:36:26.093, 1583739386093
21, -26455.84, -32151.33, -21301.19, -16988.31, -20682.69, -21726.01, -24408.02, -23436.23, 0.000, 0.000, 0.000, 10:36:26.093, 1583739386093
22, -26755.80, -32206.54, -21336.35, -16980.96, -20897.45, -21713.89, -24599.12, -23540.54, 0.000, -0.024, 0.966, 10:36:26.093, 1583739386093
23, -27437.48, -32264.16, -21530.21, -17203.09, -21822.46, -21896.91, -24951.74, -23962.79, 0.000, 0.000, 0.000, 10:36:26.093, 1583739386093
24, -27683.62, -32274.73, -21626.99, -17289.83, -22197.58, -21945.14, -25044.79, -24153.56, 0.000, 0.000, 0.000, 10:36:26.093, 1583739386093
25, -27070.96, -32199.56, -21479.04, -17144.23, -21478.93, -21833.65, -24702.83, -23819.27, 0.000, 0.000, 0.000, 10:36:26.094, 1583739386094
26, -26453.24, -32143.95, -21299.89, -16979.68, -20680.26, -21717.80, -24407.08, -23431.00, 0.000, 0.000, 0.000, 10:36:26.094, 1583739386094
27, -26757.09, -32206.22, -21342.09, -16981.22, -20898.28, -21710.18, -24602.88, -23539.13, 0.000, 0.000, 0.000, 10:36:26.094, 1583739386094
28, -27436.68, -32262.04, -21531.35, -17205.01, -21817.02, -21892.53, -24951.23, -23957.98, 0.000, 0.000, 0.000, 10:36:26.094, 1583739386094
29, -27680.91, -32270.58, -21622.45, -17291.69, -22192.85, -21940.58, -25041.49, -24145.65, 0.000, 0.000, 0.000, 10:36:26.094, 1583739386094
30, -27074.24, -32199.16, -21479.04, -17145.82, -21482.78, -21831.37, -24702.30, -23811.47, 0.000, 0.000, 0.000, 10:36:26.094, 1583739386094
31, -26456.28, -32147.22, -21305.84, -16980.80, -20689.09, -21718.45, -24408.04, -23425.59, 0.000, 0.000, 0.000, 10:36:26.094, 1583739386094
32, -26744.44, -32200.37, -21333.11, -16965.20, -20893.05, -21700.73, -24594.27, -23524.34, 0.004, -0.024, 0.972, 10:36:26.094, 1583739386094
33, -27428.65, -32260.96, -21529.51, -17193.54, -21814.41, -21887.19, -24951.50, -23951.10, 0.000, 0.000, 0.000, 10:36:26.094, 1583739386094
34, -27680.49, -32274.04, -21629.87, -17286.57, -22198.50, -21939.85, -25046.25, -24146.05, 0.000, 0.000, 0.000, 10:36:26.094, 1583739386094
35, -27076.28, -32203.19, -21483.29, -17141.22, -21488.74, -21832.74, -24706.05, -23816.68, 0.000, 0.000, 0.000, 10:36:26.094, 1583739386094
36, -26457.40, -32151.66, -21302.42, -16978.70, -20685.80, -21723.41, -24409.87, -23433.72, 0.000, 0.000, 0.000, 10:36:26.095, 1583739386095
37, -26750.95, -32209.04, -21340.75, -16979.79, -20893.25, -21715.66, -24601.94, -23540.81, 0.000, 0.000, 0.000, 10:36:26.095, 1583739386095
38, -27435.47, -32268.45, -21537.78, -17215.34, -21820.71, -21906.38, -24959.12, -23968.20, 0.000, 0.000, 0.000, 10:36:26.095, 1583739386095
39, -27683.73, -32274.06, -21632.98, -17309.35, -22204.20, -21956.95, -25050.98, -24160.71, 0.000, 0.000, 0.000, 10:36:26.095, 1583739386095
40, -27079.38, -32199.05, -21483.74, -17154.43, -21489.79, -21841.88, -24708.80, -23825.75, 0.000, 0.000, 0.000, 10:36:26.095, 1583739386095
41, -26453.42, -32146.70, -21301.68, -16980.33, -20681.33, -21720.02, -24405.56, -23430.97, 0.000, 0.000, 0.000, 10:36:26.095, 1583739386095
42, -26741.07, -32202.29, -21328.23, -16971.48, -20874.90, -21702.29, -24586.72, -23527.38, 0.000, -0.018, 0.968, 10:36:26.095, 1583739386095
43, -27428.94, -32263.98, -21524.93, -17203.89, -21801.22, -21890.87, -24943.81, -23952.22, 0.000, 0.000, 0.000, 10:36:26.095, 1583739386095
44, -27682.66, -32276.88, -21628.66, -17303.02, -22192.46, -21946.35, -25040.88, -24150.63, 0.000, 0.000, 0.000, 10:36:26.095, 1583739386095
45, -27084.32, -32209.73, -21485.41, -17154.47, -21487.31, -21836.25, -24704.27, -23820.68, 0.000, 0.000, 0.000, 10:36:26.095, 1583739386095
46, -26459.84, -32152.56, -21298.69, -16979.93, -20680.21, -21716.84, -24403.03, -23426.66, 0.000, 0.000, 0.000, 10:36:26.095, 1583739386095
47, -26745.13, -32208.77, -21333.80, -16977.45, -20881.65, -21706.76, -24591.88, -23528.72, 0.000, 0.000, 0.000, 10:36:26.096, 1583739386096
48, -27422.39, -32262.42, -21526.76, -17208.61, -21801.38, -21892.28, -24943.92, -23951.10, 0.000, 0.000, 0.000, 10:36:26.096, 1583739386096
49, -27675.01, -32271.71, -21621.49, -17293.81, -22190.79, -21940.38, -25038.38, -24143.71, 0.000, 0.000, 0.000, 10:36:26.096, 1583739386096
50, -27074.20, -32198.60, -21474.01, -17136.84, -21486.78, -21824.51, -24700.49, -23810.33, 0.000, 0.000, 0.000, 10:36:26.096, 1583739386096
51, -26450.70, -32144.69, -21304.10, -16979.48, -20688.24, -21717.18, -24407.48, -23424.74, 0.000, 0.000, 0.000, 10:36:26.096, 1583739386096
52, -26735.61, -32201.51, -21342.25, -16978.65, -20887.55, -21706.94, -24595.17, -23524.83, 0.002, -0.020, 0.972, 10:36:26.096, 1583739386096
53, -27416.89, -32259.38, -21530.85, -17206.06, -21806.18, -21891.70, -24947.21, -23948.60, 0.000, 0.000, 0.000, 10:36:26.096, 1583739386096
54, -27673.34, -32271.27, -21624.06, -17290.79, -22195.21, -21941.99, -25043.72, -24144.51, 0.000, 0.000, 0.000, 10:36:26.096, 1583739386096
55, -27074.94, -32201.55, -21480.23, -17146.67, -21493.71, -21834.46, -24707.26, -23817.15, 0.000, 0.000, 0.000, 10:36:26.096, 1583739386096
56, -26450.03, -32146.59, -21303.31, -16987.97, -20690.41, -21725.34, -24410.32, -23431.15, 0.000, 0.000, 0.000, 10:36:26.096, 1583739386096
57, -26728.53, -32199.01, -21333.82, -16977.63, -20880.66, -21708.39, -24591.81, -23524.00, 0.000, 0.000, 0.000, 10:36:26.096, 1583739386096
58, -27409.96, -32258.57, -21525.76, -17201.05, -21802.05, -21890.00, -24946.45, -23944.57, 0.000, 0.000, 0.000, 10:36:26.097, 1583739386097
59, -27669.56, -32268.74, -21624.02, -17294.75, -22196.96, -21940.49, -25044.82, -24141.87, 0.000, 0.000, 0.000, 10:36:26.097, 1583739386097
60, -27076.92, -32201.26, -21477.70, -17147.79, -21492.19, -21831.10, -24705.31, -23815.49, 0.000, 0.000, 0.000, 10:36:26.097, 1583739386097
61, -26452.17, -32151.75, -21297.39, -16983.06, -20682.87, -21721.07, -24405.18, -23427.06, 0.000, 0.000, 0.000, 10:36:26.097, 1583739386097
62, -26730.96, -32207.41, -21324.55, -16972.82, -20867.74, -21705.89, -24584.71, -23521.21, 0.008, -0.024, 0.970, 10:36:26.097, 1583739386097
63, -27419.62, -32268.90, -21526.56, -17211.00, -21796.30, -21899.99, -24946.40, -23952.60, 0.000, 0.000, 0.000, 10:36:26.097, 1583739386097
64, -27684.78, -32286.60, -21628.71, -17313.53, -22201.74, -21958.82, -25051.41, -24157.79, 0.000, 0.000, 0.000, 10:36:26.097, 1583739386097
65, -27083.36, -32211.72, -21478.55, -17155.23, -21499.96, -21841.12, -24710.28, -23824.99, 0.000, 0.000, 0.000, 10:36:26.097, 1583739386097
66, -26449.94, -32151.26, -21297.55, -16977.29, -20686.99, -21720.17, -24405.56, -23427.11, 0.000, 0.000, 0.000, 10:36:26.098, 1583739386098
67, -26727.43, -32204.77, -21330.52, -16968.04, -20873.33, -21703.77, -24587.14, -23518.04, 0.000, 0.000, 0.000, 10:36:26.098, 1583739386098
68, -27410.35, -32263.54, -21528.26, -17205.28, -21796.77, -21894.83, -24943.34, -23942.92, 0.000, 0.000, 0.000, 10:36:26.098, 1583739386098
69, -27681.79, -32279.99, -21627.12, -17301.97, -22200.91, -21950.82, -25046.89, -24148.64, 0.000, 0.000, 0.000, 10:36:26.098, 1583739386098
70, -27090.02, -32208.73, -21479.40, -17145.51, -21505.91, -21833.88, -24711.62, -23821.88, 0.000, 0.000, 0.000, 10:36:26.098, 1583739386098
71, -26450.29, -32146.37, -21295.67, -16976.39, -20690.32, -21717.18, -24402.83, -23424.94, 0.000, 0.000, 0.000, 10:36:26.098, 1583739386098
72, -26724.64, -32200.41, -21326.96, -16967.79, -20870.94, -21701.91, -24584.21, -23515.71, 0.000, -0.020, 0.966, 10:36:26.098, 1583739386098
73, -27408.29, -32259.96, -21515.72, -17188.69, -21787.16, -21880.70, -24937.37, -23933.78, 0.000, 0.000, 0.000, 10:36:26.098, 1583739386098
74, -27678.86, -32276.61, -21620.66, -17290.35, -22198.77, -21940.27, -25044.21, -24140.38, 0.000, 0.000, 0.000, 10:36:26.098, 1583739386098
75, -27090.22, -32208.64, -21480.52, -17143.65, -21508.88, -21830.63, -24713.85, -23817.84, 0.000, 0.000, 0.000, 10:36:26.099, 1583739386099
76, -26456.04, -32152.74, -21298.69, -16975.72, -20695.37, -21717.11, -24410.83, -23424.78, 0.000, 0.000, 0.000, 10:36:26.099, 1583739386099
77, -26726.85, -32205.09, -21326.78, -16964.13, -20873.09, -21700.68, -24589.42, -23514.62, 0.000, 0.000, 0.000, 10:36:26.099, 1583739386099
78, -27412.98, -32266.37, -21525.60, -17203.18, -21795.61, -21892.62, -24947.38, -23943.17, 0.000, 0.000, 0.000, 10:36:26.099, 1583739386099
79, -27684.80, -32283.54, -21637.63, -17311.92, -22211.96, -21957.06, -25056.66, -24155.24, 0.000, 0.000, 0.000, 10:36:26.099, 1583739386099
80, -27097.29, -32215.59, -21487.54, -17153.98, -21514.09, -21839.98, -24717.16, -23830.27, 0.000, 0.000, 0.000, 10:36:26.099, 1583739386099
81, -26465.87, -32161.21, -21298.51, -16977.96, -20692.82, -21721.76, -24409.36, -23433.21, 0.000, 0.000, 0.000, 10:36:26.099, 1583739386099
82, -26734.52, -32214.05, -21326.31, -16969.20, -20868.73, -21705.91, -24587.46, -23520.96, 0.000, -0.016, 0.968, 10:36:26.099, 1583739386099
83, -27416.85, -32275.27, -21524.73, -17204.00, -21790.40, -21896.60, -24943.96, -23948.93, 0.000, 0.000, 0.000, 10:36:26.099, 1583739386099
84, -27689.70, -32289.24, -21635.91, -17308.16, -22210.95, -21958.64, -25052.88, -24160.74, 0.000, 0.000, 0.000, 10:36:26.099, 1583739386099
85, -27097.38, -32211.30, -21491.34, -17158.41, -21519.61, -21844.78, -24716.92, -23834.87, 0.000, 0.000, 0.000, 10:36:26.099, 1583739386099
86, -26456.55, -32151.62, -21302.84, -16985.74, -20695.23, -21725.27, -24406.45, -23433.48, 0.000, 0.000, 0.000, 10:36:26.100, 1583739386100
87, -26725.91, -32209.62, -21330.54, -16971.79, -20865.76, -21707.59, -24586.02, -23520.36, 0.000, 0.000, 0.000, 10:36:26.100, 1583739386100
88, -27411.84, -32270.64, -21528.73, -17204.79, -21790.07, -21895.84, -24945.11, -23946.34, 0.000, 0.000, 0.000, 10:36:26.100, 1583739386100
89, -27688.65, -32285.44, -21628.26, -17303.54, -22206.03, -21954.87, -25050.63, -24156.13, 0.000, 0.000, 0.000, 10:36:26.100, 1583739386100
90, -27108.44, -32220.06, -21486.82, -17158.67, -21521.38, -21848.03, -24720.38, -23838.47, 0.000, 0.000, 0.000, 10:36:26.560, 1583739386560
91, -26471.48, -32167.18, -21309.24, -16994.90, -20706.32, -21736.56, -24417.69, -23444.99, 0.000, 0.000, 0.000, 10:36:26.561, 1583739386561
92, -26733.20, -32221.80, -21337.78, -16981.00, -20876.69, -21717.49, -24593.94, -23529.66, 0.006, -0.022, 0.970, 10:36:26.561, 1583739386561
93, -27411.96, -32273.55, -21525.87, -17199.60, -21787.96, -21894.85, -24946.09, -23944.04, 0.000, 0.000, 0.000, 10:36:26.561, 1583739386561
94, -27684.69, -32279.31, -21617.80, -17291.55, -22199.39, -21945.68, -25048.46, -24146.12, 0.000, 0.000, 0.000, 10:36:26.561, 1583739386561
95, -27105.67, -32210.58, -21478.24, -17150.47, -21517.89, -21837.86, -24717.97, -23828.79, 0.000, 0.000, 0.000, 10:36:26.562, 1583739386562
96, -26469.36, -32157.65, -21307.89, -16992.22, -20706.03, -21732.98, -24417.87, -23440.32, 0.000, 0.000, 0.000, 10:36:26.562, 1583739386562
97, -26732.17, -32211.32, -21335.01, -16978.07, -20869.24, -21713.31, -24592.08, -23525.28, 0.000, 0.000, 0.000, 10:36:26.562, 1583739386562
98, -27418.08, -32272.10, -21525.56, -17200.38, -21786.09, -21893.22, -24948.21, -23944.95, 0.000, 0.000, 0.000, 10:36:26.562, 1583739386562
99, -27699.89, -32290.09, -21632.62, -17303.85, -22211.87, -21954.80, -25062.03, -24158.12, 0.000, 0.000, 0.000, 10:36:26.566, 1583739386566
100, -27123.28, -32225.43, -21496.37, -17163.21, -21533.20, -21849.10, -24736.09, -23843.92, 0.000, 0.000, 0.000, 10:36:26.566, 1583739386566
101, -26478.12, -32169.28, -21310.46, -16995.57, -20709.11, -21735.17, -24424.40, -23445.66, 0.000, 0.000, 0.000, 10:36:26.567, 1583739386567
102, -26730.38, -32218.88, -21334.16, -16984.40, -20868.97, -21717.76, -24597.45, -23528.59, 0.000, 0.000, 0.000, 10:36:26.567, 1583739386567
103, -27412.71, -32276.07, -21526.23, -17206.17, -21786.22, -21900.06, -24955.54, -23951.10, 0.006, -0.018, 0.968, 10:36:26.575, 1583739386575
104, -27686.79, -32282.71, -21628.42, -17301.35, -22207.17, -21955.38, -25063.23, -24161.03, 0.000, 0.000, 0.000, 10:36:26.575, 1583739386575
105, -27114.32, -32215.66, -21494.82, -17163.88, -21532.28, -21850.82, -24736.32, -23847.72, 0.000, 0.000, 0.000, 10:36:26.575, 1583739386575
106, -26474.72, -32162.42, -21312.25, -16999.19, -20708.91, -21740.07, -24425.92, -23452.16, 0.000, 0.000, 0.000, 10:36:26.576, 1583739386576
107, -26728.48, -32213.62, -21334.78, -16985.47, -20868.15, -21720.66, -24596.02, -23533.62, 0.000, 0.000, 0.000, 10:36:26.576, 1583739386576
108, -27406.95, -32268.77, -21524.10, -17207.91, -21781.10, -21898.83, -24949.62, -23949.83, 0.000, 0.000, 0.000, 10:36:26.576, 1583739386576
109, -27692.63, -32286.13, -21631.26, -17314.02, -22212.18, -21962.31, -25063.37, -24165.68, 0.000, 0.000, 0.000, 10:36:26.576, 1583739386576
110, -27114.95, -32216.02, -21492.83, -17170.99, -21536.40, -21855.78, -24735.94, -23852.66, 0.000, 0.000, 0.000, 10:36:26.576, 1583739386576
111, -26464.89, -32153.47, -21306.38, -16995.30, -20705.49, -21735.69, -24421.20, -23447.90, 0.000, 0.000, 0.000, 10:36:26.576, 1583739386576
112, -26717.35, -32204.30, -21330.69, -16974.85, -20861.46, -21713.40, -24590.16, -23523.51, 0.000, 0.000, 0.000, 10:36:26.577, 1583739386577
113, -27401.47, -32267.00, -21527.14, -17202.60, -21779.23, -21898.52, -24948.46, -23947.75, 0.004, -0.020, 0.968, 10:36:26.577, 1583739386577
114, -27688.60, -32287.90, -21629.60, -17300.99, -22207.89, -21955.31, -25058.74, -24159.35, 0.000, 0.000, 0.000, 10:36:26.577, 1583739386577
115, -27114.27, -32216.04, -21486.28, -17152.42, -21530.29, -21840.34, -24726.82, -23840.19, 0.000, 0.000, 0.000, 10:36:26.577, 1583739386577
116, -26468.31, -32158.10, -21309.62, -16992.49, -20706.68, -21730.10, -24417.51, -23442.64, 0.000, 0.000, 0.000, 10:36:26.577, 1583739386577
117, -26718.94, -32211.10, -21339.93, -16977.15, -20860.14, -21711.21, -24590.88, -23519.09, 0.000, 0.000, 0.000, 10:36:26.577, 1583739386577
118, -27399.35, -32267.36, -21529.51, -17203.40, -21775.74, -21895.52, -24946.02, -23940.15, 0.000, 0.000, 0.000, 10:36:26.578, 1583739386578
119, -27680.15, -32273.10, -21627.53, -17296.81, -22203.80, -21949.81, -25050.63, -24149.47, 0.000, 0.000, 0.000, 10:36:26.578, 1583739386578
120, -27103.77, -32201.11, -21483.80, -17143.21, -21527.05, -21834.88, -24720.74, -23832.48, 0.000, 0.000, 0.000, 10:36:26.578, 1583739386578
121, -26453.51, -32142.28, -21301.19, -16977.85, -20698.52, -21721.00, -24408.26, -23431.49, 0.000, 0.000, 0.000, 10:36:26.578, 1583739386578
122, -26697.28, -32192.23, -21325.02, -16965.85, -20844.59, -21701.11, -24574.58, -23507.71, 0.000, 0.000, 0.000, 10:36:26.578, 1583739386578
123, -27382.00, -32255.22, -21519.59, -17195.71, -21762.26, -21889.15, -24936.19, -23934.76, 0.004, -0.024, 0.968, 10:36:26.578, 1583739386578
124, -27672.31, -32269.10, -21623.52, -17295.89, -22199.57, -21948.47, -25049.53, -24150.81, 0.000, 0.000, 0.000, 10:36:26.579, 1583739386579
125, -27107.72, -32203.77, -21489.03, -17154.72, -21533.89, -21842.44, -24728.18, -23843.12, 0.000, 0.000, 0.000, 10:36:26.579, 1583739386579
126, -26457.78, -32145.54, -21305.95, -16983.01, -20702.39, -21726.39, -24413.02, -23440.10, 0.000, 0.000, 0.000, 10:36:26.579, 1583739386579
127, -26699.00, -32195.70, -21316.21, -16953.15, -20839.00, -21694.09, -24570.54, -23505.18, 0.000, 0.000, 0.000, 10:36:26.579, 1583739386579
128, -27379.52, -32251.87, -21506.56, -17177.18, -21753.41, -21874.80, -24926.57, -23923.45, 0.000, 0.000, 0.000, 10:36:26.579, 1583739386579
129, -27671.08, -32264.68, -21617.80, -17289.21, -22196.20, -21941.05, -25044.86, -24144.69, 0.000, 0.000, 0.000, 10:36:26.579, 1583739386579
130, -27104.62, -32196.23, -21483.02, -17147.52, -21530.50, -21834.26, -24721.07, -23836.46, 0.000, 0.000, 0.000, 10:36:26.579, 1583739386579
131, -26454.67, -32140.82, -21302.24, -16980.20, -20701.16, -21721.67, -24407.57, -23434.91, 0.000, 0.000, 0.000, 10:36:26.579, 1583739386579
132, -26693.17, -32188.68, -21315.25, -16952.90, -20836.21, -21689.55, -24568.12, -23499.73, 0.000, 0.000, 0.000, 10:36:26.580, 1583739386580
133, -27377.67, -32248.85, -21507.45, -17179.91, -21751.89, -21873.17, -24927.07, -23920.32, 0.002, -0.028, 0.970, 10:36:26.580, 1583739386580
134, -27674.72, -32264.54, -21623.05, -17293.30, -22200.78, -21945.01, -25050.81, -24146.48, 0.000, 0.000, 0.000, 10:36:26.580, 1583739386580
135, -27108.44, -32195.70, -21485.21, -17151.39, -21537.71, -21837.72, -24725.68, -23838.51, 0.000, 0.000, 0.000, 10:36:26.580, 1583739386580
136, -26451.14, -32135.46, -21302.26, -16980.55, -20702.34, -21722.50, -24408.53, -23434.48, 0.000, 0.000, 0.000, 10:36:26.580, 1583739386580
137, -26693.88, -32191.56, -21329.64, -16967.54, -20842.82, -21704.64, -24576.99, -23509.72, 0.000, 0.000, 0.000, 10:36:26.580, 1583739386580
138, -27377.06, -32251.09, -21522.49, -17194.06, -21760.99, -21886.58, -24935.85, -23928.86, 0.000, 0.000, 0.000, 10:36:26.580, 1583739386580
139, -27669.04, -32260.36, -21622.99, -17297.17, -22201.00, -21945.93, -25048.08, -24144.71, 0.000, 0.000, 0.000, 10:36:26.581, 1583739386581
140, -27108.22, -32194.27, -21487.45, -17150.43, -21537.83, -21835.02, -24724.85, -23835.16, 0.000, 0.000, 0.000, 10:36:26.581, 1583739386581
141, -26452.39, -32136.22, -21302.62, -16983.95, -20701.89, -21721.18, -24407.14, -23432.41, 0.000, 0.000, 0.000, 10:36:26.581, 1583739386581
142, -26690.91, -32189.69, -21326.96, -16976.98, -20839.00, -21706.09, -24572.97, -23506.84, 0.000, 0.000, 0.000, 10:36:26.581, 1583739386581
143, -27372.30, -32249.25, -21507.90, -17188.20, -21746.55, -21880.57, -24924.29, -23921.64, -0.002, -0.026, 0.970, 10:36:26.581, 1583739386581
144, -27671.01, -32264.32, -21614.22, -17277.76, -22193.56, -21933.14, -25040.35, -24137.22, 0.000, 0.000, 0.000, 10:36:26.581, 1583739386581
145, -27109.94, -32197.29, -21483.09, -17142.54, -21535.95, -21828.13, -24720.00, -23834.18, 0.000, 0.000, 0.000, 10:36:26.581, 1583739386581
146, -26449.91, -32135.82, -21300.70, -16976.37, -20701.34, -21715.72, -24401.91, -23430.60, 0.000, 0.000, 0.000, 10:36:26.581, 1583739386581
147, -26684.43, -32185.35, -21317.60, -16952.88, -20832.81, -21688.90, -24563.36, -23494.70, 0.000, 0.000, 0.000, 10:36:26.582, 1583739386582
148, -27368.86, -32246.79, -21508.17, -17173.83, -21747.08, -21867.47, -24922.57, -23911.65, 0.000, 0.000, 0.000, 10:36:26.582, 1583739386582
149, -27671.50, -32267.29, -21620.95, -17290.73, -22200.18, -21938.68, -25046.27, -24141.67, 0.000, 0.000, 0.000, 10:36:26.582, 1583739386582
150, -27111.17, -32200.41, -21490.62, -17152.28, -21545.54, -21835.06, -24727.49, -23838.67, 0.000, 0.000, 0.000, 10:36:26.582, 1583739386582
151, -26449.29, -32138.54, -21309.08, -16986.86, -20709.47, -21723.91, -24408.46, -23435.02, 0.000, 0.000, 0.000, 10:36:26.582, 1583739386582
152, -26680.47, -32188.63, -21321.04, -16963.72, -20831.96, -21696.97, -24564.10, -23499.88, 0.000, 0.000, 0.000, 10:36:26.582, 1583739386582
153, -27372.88, -32258.60, -21523.92, -17201.37, -21753.66, -21890.40, -24933.35, -23930.94, -0.004, -0.024, 0.968, 10:36:26.582, 1583739386582
154, -27671.88, -32268.47, -21632.49, -17309.12, -22208.04, -21955.56, -25052.53, -24153.81, 0.000, 0.000, 0.000, 10:36:26.583, 1583739386583
155, -27108.28, -32191.67, -21480.52, -17144.59, -21537.38, -21830.43, -24719.62, -23833.42, 0.000, 0.000, 0.000, 10:36:26.583, 1583739386583
156, -26450.49, -32136.09, -21300.05, -16981.36, -20700.89, -21721.63, -24402.52, -23431.29, 0.000, 0.000, 0.000, 10:36:26.583, 1583739386583
157, -26682.77, -32190.80, -21324.39, -16969.31, -20831.45, -21703.14, -24564.72, -23502.17, 0.000, 0.000, 0.000, 10:36:26.583, 1583739386583
158, -27358.67, -32244.65, -21507.32, -17174.39, -21734.14, -21869.71, -24914.62, -23911.09, 0.000, 0.000, 0.000, 10:36:26.583, 1583739386583
159, -27668.24, -32261.72, -21619.14, -17282.10, -22191.86, -21933.77, -25039.14, -24135.95, 0.000, 0.000, 0.000, 10:36:26.583, 1583739386583
160, -27115.28, -32196.44, -21481.84, -17144.23, -21538.90, -21827.39, -24720.16, -23833.57, 0.000, 0.000, 0.000, 10:36:26.583, 1583739386583
161, -26458.29, -32144.27, -21302.53, -16985.76, -20704.06, -21720.93, -24404.86, -23435.40, 0.000, 0.000, 0.000, 10:36:26.584, 1583739386584
162, -26683.45, -32193.02, -21326.74, -16970.20, -20829.70, -21699.50, -24564.43, -23502.39, 0.000, 0.000, 0.000, 10:36:26.584, 1583739386584
163, -27362.71, -32247.42, -21516.86, -17192.13, -21739.62, -21876.93, -24923.63, -23916.52, -0.004, -0.022, 0.968, 10:36:26.584, 1583739386584
164, -27674.03, -32268.97, -21635.41, -17310.11, -22207.57, -21950.35, -25054.96, -24149.36, 0.000, 0.000, 0.000, 10:36:26.584, 1583739386584
165, -27117.96, -32199.88, -21494.58, -17152.84, -21551.78, -21830.99, -24729.25, -23839.50, 0.000, 0.000, 0.000, 10:36:26.584, 1583739386584
166, -26446.74, -32132.84, -21285.43, -16953.44, -20691.34, -21696.28, -24391.56, -23416.71, 0.000, 0.000, 0.000, 10:36:26.584, 1583739386584
167, -26675.17, -32186.06, -21303.76, -16932.99, -20812.36, -21673.26, -24548.05, -23481.02, 0.000, 0.000, 0.000, 10:36:26.585, 1583739386585
168, -27359.09, -32243.15, -21507.94, -17166.90, -21729.72, -21860.92, -24914.82, -23903.45, 0.000, 0.000, 0.000, 10:36:26.585, 1583739386585
169, -27667.77, -32254.62, -21628.46, -17289.54, -22198.95, -21936.16, -25046.04, -24137.36, 0.000, 0.000, 0.000, 10:36:26.585, 1583739386585
170, -27115.57, -32186.24, -21488.25, -17150.65, -21550.34, -21829.14, -24724.13, -23836.82, 0.000, 0.000, 0.000, 10:36:26.585, 1583739386585
171, -26446.96, -32122.54, -21292.81, -16968.44, -20700.20, -21707.72, -24393.82, -23422.44, 0.000, 0.000, 0.000, 10:36:26.585, 1583739386585
172, -26664.29, -32167.98, -21306.78, -16937.30, -20813.52, -21677.88, -24546.37, -23478.96, 0.000, 0.000, 0.000, 10:36:26.585, 1583739386585
173, -27352.14, -32232.73, -21510.92, -17174.61, -21730.92, -21868.63, -24914.62, -23904.52, 0.004, -0.020, 0.970, 10:36:26.585, 1583739386585
174, -27664.82, -32252.76, -21631.50, -17303.18, -22205.29, -21949.17, -25047.92, -24142.77, 0.000, 0.000, 0.000, 10:36:26.585, 1583739386585
175, -27114.95, -32187.88, -21490.69, -17158.36, -21559.64, -21839.08, -24729.32, -23842.22, 0.000, 0.000, 0.000, 10:36:26.585, 1583739386585
176, -26444.86, -32124.31, -21299.27, -16975.41, -20709.31, -21717.07, -24398.25, -23425.54, 0.000, 0.000, 0.000, 10:36:26.585, 1583739386585
177, -26663.33, -32169.12, -21305.28, -16937.30, -20812.74, -21679.89, -24543.31, -23474.38, 0.000, 0.000, 0.000, 10:36:26.585, 1583739386585
178, -27353.42, -32234.21, -21497.86, -17162.76, -21721.34, -21860.59, -24907.82, -23893.92, 0.000, 0.000, 0.000, 10:36:26.586, 1583739386586
179, -27670.32, -32255.80, -21617.76, -17284.02, -22194.50, -21934.04, -25041.75, -24129.89, 0.000, 0.000, 0.000, 10:36:26.586, 1583739386586
180, -27117.81, -32183.43, -21484.25, -17143.03, -21550.88, -21824.15, -24719.40, -23830.02, 0.000, 0.000, 0.000, 10:36:26.586, 1583739386586
181, -26444.06, -32118.38, -21287.91, -16965.51, -20697.31, -21702.69, -24383.52, -23413.43, 0.000, 0.000, 0.000, 10:36:26.586, 1583739386586
182, -26663.93, -32171.89, -21300.79, -16943.05, -20806.66, -21677.79, -24536.98, -23473.78, 0.000, 0.000, 0.000, 10:36:26.586, 1583739386586
183, -27350.09, -32235.71, -21493.26, -17165.36, -21714.65, -21857.08, -24900.20, -23895.38, 0.006, -0.020, 0.970, 10:36:26.586, 1583739386586
184, -27669.51, -32257.05, -21616.08, -17285.92, -22192.67, -21930.86, -25035.23, -24134.61, 0.000, 0.000, 0.000, 10:36:26.586, 1583739386586
185, -27126.88, -32195.23, -21492.95, -17156.95, -21558.19, -21831.30, -24724.09, -23844.21, 0.000, 0.000, 0.000, 10:36:26.586, 1583739386586
186, -26453.65, -32134.01, -21294.93, -16978.50, -20703.68, -21711.99, -24390.89, -23430.37, 0.000, 0.000, 0.000, 10:36:26.586, 1583739386586
187, -26667.91, -32181.68, -21299.78, -16940.07, -20802.90, -21676.92, -24538.19, -23480.55, 0.000, 0.000, 0.000, 10:36:26.586, 1583739386586
188, -27354.53, -32242.77, -21498.40, -17161.83, -21712.77, -21855.22, -24902.90, -23898.19, 0.000, 0.000, 0.000, 10:36:26.586, 1583739386586
189, -27674.41, -32263.38, -21620.19, -17287.67, -22195.55, -21933.70, -25040.70, -24139.82, 0.000, 0.000, 0.000, 10:36:26.586, 1583739386586
190, -27128.40, -32195.16, -21485.61, -17152.19, -21560.58, -21829.18, -24726.95, -23847.21, 0.000, 0.000, 0.000, 10:36:26.587, 1583739386587
191, -26451.10, -32129.42, -21305.77, -16985.94, -20719.31, -21718.90, -24402.54, -23439.07, 0.000, 0.000, 0.000, 10:36:26.587, 1583739386587
192, -26660.80, -32175.42, -21312.16, -16949.55, -20817.21, -21685.55, -24547.89, -23488.08, 0.000, 0.000, 0.000, 10:36:26.587, 1583739386587
193, -27339.22, -32231.15, -21500.52, -17168.13, -21718.70, -21860.47, -24905.21, -23898.37, 0.000, 0.000, 0.000, 10:36:26.604, 1583739386604
194, -27661.06, -32249.95, -21616.86, -17287.67, -22196.04, -21934.82, -25035.45, -24134.43, 0.000, -0.024, 0.972, 10:36:26.604, 1583739386604
195, -27124.96, -32186.38, -21482.93, -17148.97, -21562.71, -21830.03, -24721.72, -23841.64, 0.000, 0.000, 0.000, 10:36:26.605, 1583739386605
196, -26448.97, -32124.57, -21287.73, -16965.22, -20707.15, -21706.74, -24388.90, -23423.44, 0.000, 0.000, 0.000, 10:36:26.605, 1583739386605
197, -26663.98, -32182.13, -21301.86, -16936.70, -20805.76, -21679.52, -24538.68, -23478.63, 0.000, 0.000, 0.000, 10:36:26.605, 1583739386605
198, -27353.53, -32247.55, -21493.21, -17162.27, -21708.88, -21860.70, -24901.43, -23899.13, 0.000, 0.000, 0.000, 10:36:26.605, 1583739386605
199, -27671.95, -32259.78, -21606.83, -17280.74, -22184.24, -21932.00, -25029.44, -24133.49, 0.000, 0.000, 0.000, 10:36:26.605, 1583739386605
200, -27133.72, -32192.90, -21475.89, -17147.83, -21555.15, -21827.95, -24714.57, -23841.00, 0.000, 0.000, 0.000, 10:36:26.605, 1583739386605
201, -26458.07, -32130.61, -21292.09, -16984.60, -20707.37, -21719.61, -24387.85, -23433.14, 0.000, 0.000, 0.000, 10:36:26.605, 1583739386605
202, -26669.56, -32182.13, -21308.32, -16960.95, -20807.19, -21694.67, -24540.31, -23489.85, 0.000, 0.000, 0.000, 10:36:26.605, 1583739386605
203, -27356.32, -32247.96, -21495.76, -17173.38, -21707.68, -21866.04, -24900.33, -23902.04, 0.000, 0.000, 0.000, 10:36:26.605, 1583739386605
204, -27676.06, -32261.70, -21607.97, -17277.38, -22185.98, -21929.72, -25030.73, -24133.65, 0.004, -0.028, 0.974, 10:36:26.605, 1583739386605
205, -27136.04, -32190.33, -21476.25, -17133.84, -21554.79, -21818.36, -24715.98, -23837.89, 0.000, 0.000, 0.000, 10:36:26.605, 1583739386605
206, -26454.27, -32123.35, -21283.42, -16963.21, -20700.33, -21703.74, -24381.35, -23422.41, 0.000, 0.000, 0.000, 10:36:26.606, 1583739386606
207, -26660.91, -32176.16, -21295.89, -16937.03, -20792.62, -21676.74, -24529.03, -23475.90, 0.000, 0.000, 0.000, 10:36:26.606, 1583739386606
208, -27352.92, -32243.42, -21495.69, -17164.11, -21703.25, -21859.71, -24898.14, -23897.34, 0.000, 0.000, 0.000, 10:36:26.606, 1583739386606
209, -27679.15, -32258.64, -21617.40, -17286.71, -22192.49, -21936.18, -25036.23, -24137.63, 0.000, 0.000, 0.000, 10:36:26.606, 1583739386606
210, -27143.15, -32192.81, -21489.23, -17153.55, -21571.44, -21832.33, -24725.97, -23848.84, 0.000, 0.000, 0.000, 10:36:27.041, 1583739387041
211, -26461.67, -32132.13, -21304.61, -16989.70, -20721.54, -21723.46, -24396.95, -23438.80, 0.000, 0.000, 0.000, 10:36:27.041, 1583739387041
212, -26662.97, -32180.86, -21313.30, -16958.56, -20807.51, -21691.27, -24540.67, -23485.42, 0.000, 0.000, 0.000, 10:36:27.041, 1583739387041
213, -27347.87, -32241.21, -21502.11, -17171.73, -21707.72, -21864.61, -24902.90, -23898.39, 0.000, 0.000, 0.000, 10:36:27.041, 1583739387041
214, -27676.20, -32257.30, -21621.89, -17291.98, -22199.46, -21939.24, -25040.52, -24139.53, 0.004, -0.020, 0.976, 10:36:27.041, 1583739387041
215, -27144.07, -32191.52, -21490.55, -17152.30, -21576.05, -21831.33, -24729.52, -23848.17, 0.000, 0.000, 0.000, 10:36:27.042, 1583739387042
216, -26464.40, -32129.00, -21300.68, -16981.27, -20719.46, -21717.38, -24395.16, -23432.16, 0.000, 0.000, 0.000, 10:36:27.042, 1583739387042
217, -26662.08, -32177.06, -21303.83, -16944.95, -20797.61, -21682.53, -24532.87, -23473.40, 0.000, 0.000, 0.000, 10:36:27.042, 1583739387042
218, -27346.49, -32240.02, -21496.21, -17165.11, -21701.53, -21859.58, -24897.12, -23886.57, 0.000, 0.000, 0.000, 10:36:27.042, 1583739387042
219, -27675.64, -32256.45, -21612.71, -17292.52, -22194.32, -21937.59, -25034.71, -24130.47, 0.000, 0.000, 0.000, 10:36:27.042, 1583739387042
220, -27145.46, -32191.14, -21479.89, -17155.68, -21568.65, -21832.02, -24723.31, -23843.83, 0.000, 0.000, 0.000, 10:36:27.042, 1583739387042
221, -26465.27, -32129.34, -21290.64, -16976.95, -20712.11, -21715.41, -24389.08, -23427.91, 0.000, 0.000, 0.000, 10:36:27.042, 1583739387042
222, -26661.65, -32179.38, -21301.28, -16946.73, -20796.87, -21685.59, -24530.46, -23474.40, 0.000, 0.000, 0.000, 10:36:27.042, 1583739387042
223, -27337.52, -32234.32, -21492.07, -17166.50, -21695.83, -21859.36, -24891.30, -23886.44, 0.000, 0.000, 0.000, 10:36:27.052, 1583739387052
224, -27670.54, -32251.58, -21614.29, -17287.11, -22193.29, -21935.44, -25034.89, -24129.89, 0.002, -0.016, 0.968, 10:36:27.052, 1583739387052
225, -27146.39, -32189.64, -21485.52, -17148.46, -21573.72, -21830.61, -24728.16, -23844.62, 0.000, 0.000, 0.000, 10:36:27.053, 1583739387053
226, -26462.99, -32127.97, -21294.10, -16976.93, -20713.79, -21715.70, -24390.40, -23430.35, 0.000, 0.000, 0.000, 10:36:27.053, 1583739387053
227, -26655.13, -32176.59, -21301.14, -16942.49, -20792.51, -21680.12, -24527.48, -23470.38, 0.000, 0.000, 0.000, 10:36:27.053, 1583739387053
228, -27343.07, -32242.61, -21493.44, -17163.48, -21692.43, -21855.71, -24891.71, -23884.29, 0.000, 0.000, 0.000, 10:36:27.053, 1583739387053
229, -27676.24, -32257.84, -21612.08, -17284.31, -22190.97, -21928.92, -25029.51, -24126.45, 0.000, 0.000, 0.000, 10:36:27.053, 1583739387053
230, -27151.42, -32193.04, -21487.51, -17156.57, -21578.46, -21829.94, -24725.03, -23847.23, 0.000, 0.000, 0.000, 10:36:27.056, 1583739387056
231, -26464.51, -32126.90, -21296.05, -16983.28, -20717.81, -21716.33, -24388.46, -23431.02, 0.000, 0.000, 0.000, 10:36:27.056, 1583739387056
232, -26653.25, -32174.15, -21298.11, -16934.57, -20787.99, -21676.25, -24523.82, -23467.54, 0.000, 0.000, 0.000, 10:36:27.057, 1583739387057
233, -27339.45, -32238.46, -21486.37, -17151.79, -21688.77, -21852.79, -24889.31, -23882.70, 0.000, 0.000, 0.000, 10:36:27.057, 1583739387057
234, -27673.13, -32252.54, -21611.86, -17280.63, -22192.09, -21931.11, -25031.58, -24128.97, 0.004, -0.018, 0.968, 10:36:27.057, 1583739387057
235, -27152.72, -32192.70, -21489.82, -17151.39, -21583.63, -21829.74, -24727.09, -23850.92, 0.000, 0.000, 0.000, 10:36:27.057, 1583739387057
236, -26466.63, -32127.75, -21295.67, -16976.22, -20720.65, -21714.65, -24388.81, -23434.33, 0.000, 0.000, 0.000, 10:36:27.057, 1583739387057
237, -26659.46, -32178.35, -21309.97, -16951.67, -20797.22, -21688.66, -24531.91, -23480.51, 0.000, 0.000, 0.000, 10:36:27.057, 1583739387057
238, -27346.38, -32244.38, -21505.71, -17174.95, -21700.68, -21866.87, -24899.35, -23897.17, 0.000, 0.000, 0.000, 10:36:27.057, 1583739387057
239, -27682.32, -32263.60, -21622.34, -17296.25, -22201.56, -21943.69, -25041.75, -24143.77, 0.000, 0.000, 0.000, 10:36:27.057, 1583739387057
240, -27161.46, -32194.58, -21489.79, -17157.33, -21587.00, -21837.81, -24735.24, -23860.46, 0.000, 0.000, 0.000, 10:36:27.058, 1583739387058
241, -26473.09, -32130.30, -21295.78, -16982.27, -20722.70, -21722.81, -24395.21, -23441.64, 0.000, 0.000, 0.000, 10:36:27.058, 1583739387058
242, -26657.11, -32177.08, -21307.52, -16947.14, -20797.96, -21691.96, -24535.08, -23482.45, 0.000, 0.000, 0.000, 10:36:27.058, 1583739387058
243, -27341.17, -32234.77, -21499.14, -17160.75, -21696.28, -21865.75, -24900.33, -23893.59, 0.000, 0.000, 0.000, 10:36:27.058, 1583739387058
244, -27681.54, -32247.53, -21613.18, -17281.81, -22196.00, -21940.34, -25040.37, -24138.92, -0.002, -0.014, 0.968, 10:36:27.058, 1583739387058
245, -27164.81, -32188.54, -21490.91, -17151.74, -21591.20, -21839.15, -24737.35, -23859.90, 0.000, 0.000, 0.000, 10:36:27.058, 1583739387058
246, -26473.03, -32127.32, -21300.97, -16980.53, -20727.44, -21723.66, -24396.57, -23438.17, 0.000, 0.000, 0.000, 10:36:27.058, 1583739387058
247, -26652.06, -32171.27, -21305.12, -16942.26, -20788.66, -21686.04, -24526.72, -23470.36, 0.000, 0.000, 0.000, 10:36:27.059, 1583739387059
248, -27336.54, -32233.20, -21498.85, -17165.02, -21691.72, -21864.41, -24894.43, -23887.15, 0.000, 0.000, 0.000, 10:36:27.059, 1583739387059
249, -27677.85, -32251.93, -21623.39, -17294.04, -22204.65, -21948.38, -25043.23, -24140.04, 0.000, 0.000, 0.000, 10:36:27.059, 1583739387059
250, -27158.60, -32188.01, -21500.92, -17162.61, -21602.54, -21845.83, -24740.83, -23860.89, 0.000, 0.000, 0.000, 10:36:27.059, 1583739387059
251, -26463.21, -32119.95, -21307.65, -16988.42, -20734.08, -21729.67, -24396.53, -23440.45, 0.000, 0.000, 0.000, 10:36:27.059, 1583739387059
252, -26643.35, -32165.81, -21308.86, -16950.04, -20792.20, -21694.09, -24527.73, -23475.23, 0.000, 0.000, 0.000, 10:36:27.059, 1583739387059
253, -27326.88, -32229.36, -21492.97, -17158.21, -21687.54, -21862.58, -24888.13, -23884.83, 0.000, 0.000, 0.000, 10:36:27.059, 1583739387059
254, -27678.07, -32250.88, -21617.02, -17288.20, -22200.40, -21943.69, -25035.79, -24137.92, 0.000, -0.016, 0.964, 10:36:27.059, 1583739387059
255, -27163.45, -32185.35, -21493.04, -17162.27, -21595.96, -21841.07, -24733.79, -23860.58, 0.000, 0.000, 0.000, 10:36:27.059, 1583739387059
0, -26467.24, -32117.31, -21298.69, -16984.20, -20723.20, -21722.03, -24388.52, -23437.68, 0.000, 0.000, 0.000, 10:36:27.059, 1583739387059
1, -26645.76, -32166.10, -21297.28, -16936.25, -20776.48, -21682.46, -24517.56, -23469.38, 0.000, 0.000, 0.000, 10:36:27.060, 1583739387060
2, -27334.93, -32234.10, -21486.02, -17147.63, -21675.63, -21855.74, -24884.06, -23881.92, 0.000, 0.000, 0.000, 10:36:27.060, 1583739387060
3, -27685.96, -32258.84, -21623.77, -17291.51, -22201.41, -21948.79, -25042.94, -24145.78, 0.000, 0.000, 0.000, 10:36:27.060, 1583739387060
4, -27172.05, -32194.51, -21502.60, -17164.53, -21604.05, -21850.80, -24745.86, -23873.81, 0.000, 0.000, 0.000, 10:36:27.060, 1583739387060
5, -26473.45, -32124.06, -21310.15, -16986.34, -20736.99, -21733.90, -24403.68, -23450.71, 0.000, 0.000, 0.000, 10:36:27.060, 1583739387060
6, -26647.55, -32171.38, -21311.36, -16947.23, -20788.37, -21697.11, -24532.80, -23481.60, 0.000, 0.000, 0.000, 10:36:27.060, 1583739387060
7, -27335.87, -32236.89, -21502.13, -17169.45, -21687.16, -21874.00, -24896.91, -23896.23, 0.000, 0.000, 0.000, 10:36:27.060, 1583739387060
8, -27676.04, -32249.86, -21620.84, -17295.56, -22203.42, -21949.46, -25039.74, -24144.51, 0.004, -0.018, 0.968, 10:36:27.060, 1583739387060
9, -27163.63, -32187.29, -21498.96, -17154.54, -21606.31, -21840.13, -24740.56, -23865.36, 0.000, 0.000, 0.000, 10:36:27.061, 1583739387061
10, -26466.72, -32122.34, -21304.65, -16978.21, -20736.52, -21722.90, -24398.69, -23443.36, 0.000, 0.000, 0.000, 10:36:27.061, 1583739387061
11, -26640.80, -32167.65, -21303.40, -16933.21, -20784.30, -21683.40, -24526.03, -23470.49, 0.000, 0.000, 0.000, 10:36:27.061, 1583739387061
12, -27325.07, -32229.13, -21492.03, -17152.35, -21682.85, -21858.49, -24891.04, -23882.23, 0.000, 0.000, 0.000, 10:36:27.061, 1583739387061
13, -27676.38, -32249.19, -21624.33, -17289.90, -22208.56, -21946.75, -25044.14, -24141.25, 0.000, 0.000, 0.000, 10:36:27.061, 1583739387061
14, -27173.44, -32194.40, -21509.75, -17161.54, -21621.60, -21849.86, -24751.87, -23872.24, 0.000, 0.000, 0.000, 10:36:27.061, 1583739387061
15, -26474.39, -32131.77, -21321.31, -16990.32, -20756.32, -21739.62, -24411.30, -23452.66, 0.000, 0.000, 0.000, 10:36:27.061, 1583739387061
16, -26637.45, -32174.69, -21312.54, -16945.35, -20793.36, -21697.22, -24533.43, -23475.39, 0.000, 0.000, 0.000, 10:36:27.061, 1583739387061
17, -27317.00, -32228.76, -21496.05, -17154.16, -21681.46, -21862.93, -24889.40, -23879.87, 0.000, 0.000, 0.000, 10:36:27.061, 1583739387061
18, -27671.71, -32253.25, -21628.17, -17292.63, -22212.13, -21951.96, -25043.14, -24141.25, -0.002, -0.018, 0.964, 10:36:27.063, 1583739387063
19, -27166.85, -32195.92, -21509.73, -17165.22, -21621.38, -21852.67, -24749.06, -23872.09, 0.000, 0.000, 0.000, 10:36:27.063, 1583739387063
20, -26463.77, -32126.59, -21315.05, -16990.14, -20746.31, -21736.60, -24403.10, -23448.68, 0.000, 0.000, 0.000, 10:36:27.063, 1583739387063
21, -26624.06, -32165.52, -21311.94, -16946.89, -20782.85, -21695.54, -24522.99, -23470.49, 0.000, 0.000, 0.000, 10:36:27.063, 1583739387063
22, -27312.58, -32230.19, -21498.13, -17162.32, -21675.16, -21866.76, -24885.65, -23881.32, 0.000, 0.000, 0.000, 10:36:27.063, 1583739387063
23, -27666.72, -32248.80, -21621.98, -17289.79, -22199.57, -21945.52, -25037.37, -24135.55, 0.000, 0.000, 0.000, 10:36:27.063, 1583739387063
24, -27164.37, -32190.09, -21499.05, -17153.49, -21609.58, -21839.53, -24741.86, -23862.05, 0.000, 0.000, 0.000, 10:36:27.063, 1583739387063
25, -26466.68, -32128.08, -21312.37, -16987.41, -20743.47, -21731.28, -24401.49, -23444.52, 0.000, 0.000, 0.000, 10:36:27.063, 1583739387063
26, -26633.53, -32176.77, -21315.72, -16951.16, -20788.22, -21696.99, -24530.05, -23472.50, 0.000, 0.000, 0.000, 10:36:27.063, 1583739387063
27, -27315.13, -32237.94, -21495.61, -17158.74, -21674.55, -21862.82, -24887.75, -23877.72, 0.000, 0.000, 0.000, 10:36:27.063, 1583739387063
28, -27670.65, -32258.66, -21619.97, -17287.96, -22199.44, -21946.02, -25039.07, -24135.75, 0.000, 0.000, 0.000, 10:36:27.063, 1583739387063
29, -27171.21, -32199.97, -21504.26, -17162.00, -21620.10, -21849.03, -24749.66, -23870.41, 0.000, -0.024, 0.966, 10:36:27.063, 1583739387063
30, -26467.46, -32131.35, -21313.42, -16991.19, -20749.86, -21735.37, -24402.34, -23448.21, 0.000, 0.000, 0.000, 10:36:27.064, 1583739387064
31, -26632.68, -32180.54, -21320.08, -16958.40, -20793.02, -21703.63, -24532.13, -23478.18, 0.000, 0.000, 0.000, 10:36:27.064, 1583739387064
32, -27313.21, -32241.70, -21501.10, -17166.68, -21681.21, -21870.67, -24894.50, -23884.56, 0.000, 0.000, 0.000, 10:36:27.064, 1583739387064
33, -27668.08, -32256.99, -21620.48, -17287.89, -22202.97, -21946.53, -25040.99, -24137.00, 0.000, 0.000, 0.000, 10:36:27.064, 1583739387064
34, -27176.28, -32200.53, -21501.62, -17153.44, -21615.68, -21843.02, -24748.32, -23868.62, 0.000, 0.000, 0.000, 10:36:27.064, 1583739387064
35, -26472.24, -32133.72, -21309.15, -16976.04, -20740.21, -21726.63, -24404.13, -23444.68, 0.000, 0.000, 0.000, 10:36:27.064, 1583739387064
36, -26627.12, -32177.77, -21310.29, -16936.50, -20775.81, -21689.26, -24529.16, -23467.97, 0.000, 0.000, 0.000, 10:36:27.064, 1583739387064
37, -27314.55, -32240.24, -21502.67, -17153.06, -21671.94, -21862.04, -24894.77, -23878.44, 0.000, 0.000, 0.000, 10:36:27.064, 1583739387064
38, -27677.31, -32260.70, -21630.99, -17288.87, -22209.99, -21948.56, -25051.25, -24138.70, 0.000, 0.000, 0.000, 10:36:27.064, 1583739387064
39, -27178.80, -32199.63, -21501.66, -17155.54, -21623.01, -21842.64, -24753.01, -23868.22, 0.002, -0.024, 0.968, 10:36:27.064, 1583739387064
40, -26473.52, -32131.46, -21308.23, -16980.02, -20742.55, -21728.20, -24403.23, -23442.40, 0.000, 0.000, 0.000, 10:36:27.066, 1583739387066
41, -26631.79, -32178.51, -21305.84, -16938.62, -20774.00, -21690.24, -24521.18, -23463.63, 0.000, 0.000, 0.000, 10:36:27.066, 1583739387066
42, -27312.27, -32239.55, -21491.38, -17152.26, -21662.42, -21860.65, -24882.43, -23870.39, 0.000, 0.000, 0.000, 10:36:27.066, 1583739387066
43, -27671.15, -32258.57, -21617.24, -17287.44, -22198.50, -21945.52, -25036.75, -24130.96, 0.000, 0.000, 0.000, 10:36:27.066, 1583739387066
44, -27183.50, -32202.25, -21502.60, -17161.20, -21621.76, -21847.24, -24747.61, -23869.70, 0.000, 0.000, 0.000, 10:36:27.066, 1583739387066
45, -26475.57, -32133.25, -21312.16, -16990.01, -20746.13, -21732.96, -24400.77, -23444.92, 0.000, 0.000, 0.000, 10:36:27.066, 1583739387066
46, -26627.32, -32176.88, -21312.48, -16948.03, -20776.44, -21693.96, -24522.48, -23463.92, 0.000, 0.000, 0.000, 10:36:27.066, 1583739387066
47, -27303.41, -32236.18, -21491.22, -17155.43, -21657.52, -21859.69, -24880.20, -23869.49, 0.000, 0.000, 0.000, 10:36:27.066, 1583739387066
48, -27668.08, -32257.84, -21621.49, -17288.69, -22200.04, -21946.64, -25039.94, -24136.24, 0.000, 0.000, 0.000, 10:36:27.066, 1583739387066
49, -27174.33, -32196.12, -21503.65, -17162.50, -21622.41, -21846.01, -24749.21, -23872.47, 0.004, -0.022, 0.970, 10:36:27.066, 1583739387066
50, -26468.51, -32125.24, -21309.13, -16991.21, -20743.51, -21732.73, -24399.48, -23447.45, 0.000, 0.000, 0.000, 10:36:27.066, 1583739387066
51, -26621.51, -32172.36, -21303.47, -16937.08, -20765.64, -21686.91, -24516.94, -23462.98, 0.000, 0.000, 0.000, 10:36:27.066, 1583739387066
52, -27302.70, -32237.18, -21489.08, -17146.94, -21653.54, -21856.07, -24879.37, -23869.70, 0.000, 0.000, 0.000, 10:36:27.066, 1583739387066
53, -27670.14, -32258.28, -21623.01, -17285.59, -22197.12, -21945.75, -25040.03, -24134.54, 0.000, 0.000, 0.000, 10:36:27.066, 1583739387066
54, -27181.55, -32200.46, -21516.30, -17167.79, -21632.87, -21851.56, -24756.95, -23877.52, 0.000, 0.000, 0.000, 10:36:27.066, 1583739387066
55, -26475.33, -32135.48, -21321.60, -16991.95, -20755.14, -21737.38, -24409.38, -23453.60, 0.000, 0.000, 0.000, 10:36:27.066, 1583739387066
56, -26615.52, -32172.12, -21302.82, -16935.22, -20764.93, -21684.41, -24515.62, -23458.78, 0.000, 0.000, 0.000, 10:36:27.066, 1583739387066
57, -27305.47, -32241.74, -21490.69, -17149.11, -21653.10, -21855.85, -24880.62, -23869.34, 0.000, 0.000, 0.000, 10:36:27.066, 1583739387066
58, -27677.45, -32265.81, -21618.92, -17288.89, -22199.48, -21946.08, -25041.57, -24138.97, 0.000, 0.000, 0.000, 10:36:27.066, 1583739387066
59, -27188.15, -32200.12, -21501.28, -17156.06, -21627.01, -21842.35, -24751.81, -23874.50, 0.002, -0.022, 0.970, 10:36:27.066, 1583739387066
60, -26477.29, -32130.79, -21306.33, -16978.70, -20744.56, -21724.93, -24400.66, -23445.35, 0.000, 0.000, 0.000, 10:36:27.066, 1583739387066
61, -26626.76, -32180.39, -21302.53, -16937.99, -20763.45, -21687.43, -24518.81, -23463.72, 0.000, 0.000, 0.000, 10:36:27.066, 1583739387066
62, -27306.10, -32242.23, -21490.62, -17151.70, -21652.71, -21858.87, -24885.85, -23873.12, 0.000, 0.000, 0.000, 10:36:27.066, 1583739387066
63, -27673.47, -32260.58, -21626.29, -17291.67, -22206.14, -21950.44, -25050.96, -24141.00, 0.000, 0.000, 0.000, 10:36:27.066, 1583739387066
64, -27185.80, -32197.04, -21508.28, -17164.26, -21637.38, -21850.24, -24761.02, -23879.53, 0.000, 0.000, 0.000, 10:36:27.066, 1583739387066
65, -26475.37, -32129.56, -21307.92, -16987.26, -20753.42, -21731.28, -24405.36, -23450.85, 0.000, 0.000, 0.000, 10:36:27.067, 1583739387067
66, -26618.40, -32174.69, -21301.08, -16937.91, -20765.71, -21685.97, -24515.04, -23461.11, 0.000, 0.000, 0.000, 10:36:27.067, 1583739387067
67, -27301.11, -32239.35, -21490.17, -17156.04, -21651.82, -21860.38, -24880.75, -23870.16, 0.000, 0.000, 0.000, 10:36:27.067, 1583739387067
68, -27677.09, -32264.09, -21632.15, -17306.11, -22212.58, -21960.12, -25053.42, -24145.56, 0.000, 0.000, 0.000, 10:36:27.067, 1583739387067
69, -27195.10, -32203.54, -21520.50, -17176.33, -21650.68, -21860.01, -24769.80, -23885.97, 0.002, -0.024, 0.974, 10:36:27.067, 1583739387067
70, -26483.26, -32133.18, -21316.01, -16989.76, -20760.66, -21736.98, -24411.37, -23452.77, 0.000, 0.000, 0.000, 10:36:27.067, 1583739387067
71, -26616.41, -32168.23, -21306.73, -16938.69, -20767.59, -21688.03, -24519.21, -23459.12, 0.000, 0.000, 0.000, 10:36:27.067, 1583739387067
72, -27299.53, -32235.82, -21494.91, -17152.50, -21655.15, -21859.69, -24886.16, -23867.13, 0.000, 0.000, 0.000, 10:36:27.067, 1583739387067
73, -27674.57, -32260.92, -21625.36, -17296.00, -22211.20, -21953.82, -25049.29, -24138.65, 0.000, 0.000, 0.000, 10:36:27.067, 1583739387067
74, -27194.72, -32201.64, -21512.55, -17172.60, -21647.87, -21856.07, -24761.17, -23881.81, 0.000, 0.000, 0.000, 10:36:27.521, 1583739387521
75, -26477.76, -32126.92, -21310.80, -16983.91, -20754.53, -21730.52, -24400.26, -23444.83, 0.000, 0.000, 0.000, 10:36:27.521, 1583739387521
76, -26616.23, -32172.12, -21298.84, -16932.70, -20758.27, -21684.63, -24511.21, -23453.73, 0.000, 0.000, 0.000, 10:36:27.522, 1583739387522
77, -27300.40, -32239.87, -21484.94, -17146.92, -21643.73, -21856.23, -24877.47, -23863.75, 0.000, 0.000, 0.000, 10:36:27.522, 1583739387522
