%OpenBCI Raw EEG Data
%Number of channels = 8
%Sample Rate = 250.0 Hz
%First Column = SampleIndex
%Last Column = Timestamp 
%Other Columns = EEG data in microvolts followed by Accel Data (in G) interleaved with Aux Data
0, 0.00, 0.00, 0.00, 0.00, 0.00, 0.00, 0.00, 0.00, -0.002, -0.018, 0.954, 10:45:19.565, 1583739919565
1, -24875.23, -30176.62, -19090.58, -15394.21, -17948.65, -20449.74, -22857.52, -21085.61, 0.000, 0.000, 0.000, 10:45:20.049, 1583739920049
2, -25441.78, -30236.05, -19219.64, -15508.22, -18601.99, -20500.57, -23125.00, -21372.74, 0.000, 0.000, 0.000, 10:45:20.050, 1583739920050
3, -25596.86, -30235.11, -19271.23, -15554.29, -18815.18, -20514.59, -23179.85, -21474.86, 0.000, 0.000, 0.000, 10:45:20.050, 1583739920050
4, -25068.42, -30168.75, -19172.39, -15479.07, -18281.29, -20485.39, -22915.30, -21237.93, 0.000, 0.000, 0.000, 10:45:20.050, 1583739920050
5, -24576.68, -30128.85, -19060.81, -15390.29, -17742.77, -20450.21, -22695.98, -20988.49, 0.000, 0.000, 0.000, 10:45:20.050, 1583739920050
6, -24864.97, -30177.18, -19093.13, -15390.94, -17953.39, -20451.06, -22857.27, -21086.17, 0.000, 0.000, 0.000, 10:45:20.050, 1583739920050
7, -25435.64, -30242.96, -19224.78, -15510.46, -18604.79, -20505.96, -23127.44, -21375.58, 0.000, 0.000, 0.000, 10:45:20.051, 1583739920051
8, -25598.04, -30241.46, -19271.32, -15546.71, -18813.69, -20511.46, -23179.52, -21472.45, 0.002, -0.018, 0.968, 10:45:20.051, 1583739920051
9, -25073.94, -30175.01, -19171.00, -15475.30, -18281.49, -20481.82, -22912.91, -21233.55, 0.000, 0.000, 0.000, 10:45:20.051, 1583739920051
10, -24587.90, -30134.22, -19071.49, -15407.35, -17749.72, -20462.44, -22704.99, -20995.15, 0.000, 0.000, 0.000, 10:45:20.051, 1583739920051
11, -24878.21, -30185.96, -19108.77, -15408.71, -17962.35, -20465.10, -22869.05, -21093.63, 0.000, 0.000, 0.000, 10:45:20.051, 1583739920051
12, -25439.35, -30242.60, -19235.82, -15525.50, -18612.77, -20517.94, -23134.48, -21380.29, 0.000, 0.000, 0.000, 10:45:20.056, 1583739920056
13, -25604.39, -30249.17, -19276.77, -15557.31, -18821.40, -20522.34, -23186.27, -21480.85, 0.000, 0.000, 0.000, 10:45:20.056, 1583739920056
14, -25078.16, -30180.93, -19178.15, -15476.86, -18285.54, -20486.24, -22917.24, -21238.60, 0.000, 0.000, 0.000, 10:45:20.056, 1583739920056
15, -24582.54, -30131.45, -19070.75, -15407.62, -17747.42, -20460.65, -22698.49, -20992.85, 0.000, 0.000, 0.000, 10:45:20.056, 1583739920056
16, -24863.30, -30178.41, -19096.48, -15418.77, -17950.84, -20466.15, -22855.98, -21091.48, 0.000, 0.000, 0.000, 10:45:20.057, 1583739920057
17, -25427.88, -30235.47, -19225.43, -15523.53, -18597.23, -20511.95, -23121.25, -21374.71, 0.000, 0.000, 0.000, 10:45:20.057, 1583739920057
18, -25599.47, -30234.47, -19270.42, -15545.86, -18810.13, -20509.33, -23174.06, -21471.24, 0.000, -0.016, 0.970, 10:45:20.057, 1583739920057
19, -25079.33, -30172.75, -19174.02, -15477.02, -18283.14, -20480.77, -22912.37, -21237.78, 0.000, 0.000, 0.000, 10:45:20.057, 1583739920057
20, -24570.29, -30113.86, -19058.13, -15393.47, -17731.10, -20444.49, -22686.71, -20981.94, 0.000, 0.000, 0.000, 10:45:20.057, 1583739920057
21, -24858.29, -30169.02, -19093.96, -15399.03, -17938.44, -20450.44, -22854.70, -21081.54, 0.000, 0.000, 0.000, 10:45:20.057, 1583739920057
22, -25426.03, -30231.43, -19225.49, -15508.60, -18589.97, -20500.37, -23123.10, -21367.08, 0.000, 0.000, 0.000, 10:45:20.057, 1583739920057
23, -25600.10, -30231.67, -19272.21, -15537.12, -18808.25, -20504.42, -23179.52, -21468.94, 0.000, 0.000, 0.000, 10:45:20.057, 1583739920057
24, -25080.49, -30167.34, -19173.97, -15465.17, -18284.49, -20474.40, -22916.15, -21235.21, 0.000, 0.000, 0.000, 10:45:20.058, 1583739920058
25, -24581.44, -30126.31, -19068.41, -15395.68, -17745.25, -20449.83, -22696.65, -20989.45, 0.000, 0.000, 0.000, 10:45:20.058, 1583739920058
26, -24866.76, -30179.97, -19100.62, -15405.11, -17943.91, -20457.19, -22856.33, -21087.10, 0.000, 0.000, 0.000, 10:45:20.058, 1583739920058
27, -25433.09, -30239.88, -19224.64, -15518.66, -18589.81, -20509.92, -23119.66, -21372.42, 0.000, 0.000, 0.000, 10:45:20.058, 1583739920058
28, -25611.90, -30248.10, -19278.40, -15552.50, -18817.75, -20518.77, -23180.99, -21480.18, 0.000, -0.020, 0.970, 10:45:20.058, 1583739920058
29, -25093.54, -30181.54, -19176.66, -15470.02, -18289.67, -20482.51, -22916.44, -21244.04, 0.000, 0.000, 0.000, 10:45:20.058, 1583739920058
30, -24583.77, -30130.96, -19065.46, -15396.46, -17740.40, -20453.54, -22692.65, -20990.16, 0.000, 0.000, 0.000, 10:45:20.058, 1583739920058
31, -24863.43, -30179.28, -19096.41, -15403.15, -17936.60, -20458.51, -22850.59, -21083.60, 0.000, 0.000, 0.000, 10:45:20.058, 1583739920058
32, -25428.28, -30235.52, -19221.52, -15506.66, -18582.84, -20501.76, -23115.32, -21362.79, 0.000, 0.000, 0.000, 10:45:20.058, 1583739920058
33, -25605.87, -30244.66, -19273.82, -15547.02, -18812.37, -20511.68, -23177.44, -21471.02, 0.000, 0.000, 0.000, 10:45:20.059, 1583739920059
34, -25086.93, -30177.71, -19175.29, -15471.81, -18288.04, -20478.69, -22913.80, -21235.61, 0.000, 0.000, 0.000, 10:45:20.059, 1583739920059
35, -24582.22, -30127.00, -19066.02, -15393.02, -17740.04, -20448.78, -22691.02, -20983.97, 0.000, 0.000, 0.000, 10:45:20.059, 1583739920059
36, -24859.19, -30178.27, -19099.01, -15401.25, -17937.03, -20455.87, -22849.34, -21078.54, 0.000, 0.000, 0.000, 10:45:20.059, 1583739920059
37, -25425.82, -30237.15, -19221.81, -15517.47, -18584.27, -20509.67, -23115.32, -21365.70, 0.000, 0.000, 0.000, 10:45:20.059, 1583739920059
38, -25606.27, -30242.22, -19276.99, -15558.96, -18819.03, -20522.83, -23180.57, -21478.04, 0.002, -0.018, 0.974, 10:45:20.059, 1583739920059
39, -25092.87, -30176.22, -19179.21, -15478.67, -18298.68, -20485.62, -22919.21, -21242.22, 0.000, 0.000, 0.000, 10:45:20.059, 1583739920059
40, -24585.11, -30132.01, -19061.63, -15393.13, -17744.47, -20452.20, -22694.31, -20987.71, 0.000, 0.000, 0.000, 10:45:20.059, 1583739920059
41, -24857.98, -30183.82, -19090.45, -15405.27, -17935.80, -20463.07, -22854.19, -21086.59, 0.000, 0.000, 0.000, 10:45:20.060, 1583739920060
42, -25422.58, -30240.14, -19221.92, -15528.90, -18584.67, -20518.05, -23120.91, -21374.50, 0.000, 0.000, 0.000, 10:45:20.060, 1583739920060
43, -25609.55, -30246.65, -19266.78, -15549.21, -18809.80, -20513.07, -23176.52, -21474.26, 0.000, 0.000, 0.000, 10:45:20.060, 1583739920060
44, -25096.85, -30182.70, -19160.18, -15450.40, -18284.11, -20464.79, -22911.37, -21228.95, 0.000, 0.000, 0.000, 10:45:20.060, 1583739920060
45, -24579.77, -30134.33, -19046.86, -15371.32, -17731.08, -20431.77, -22684.38, -20971.05, 0.000, 0.000, 0.000, 10:45:20.060, 1583739920060
46, -24853.35, -30184.82, -19083.27, -15389.26, -17922.39, -20443.51, -22846.66, -21068.11, 0.000, 0.000, 0.000, 10:45:20.061, 1583739920061
47, -25419.16, -30242.54, -19215.79, -15509.85, -18573.79, -20500.86, -23116.13, -21356.17, 0.000, 0.000, 0.000, 10:45:20.061, 1583739920061
48, -25601.60, -30250.20, -19269.57, -15545.12, -18811.61, -20507.99, -23178.71, -21467.33, 0.002, -0.020, 0.974, 10:45:20.061, 1583739920061
49, -25093.79, -30180.24, -19171.20, -15464.84, -18298.14, -20471.98, -22920.86, -21234.87, 0.000, 0.000, 0.000, 10:45:20.061, 1583739920061
50, -24584.04, -30130.62, -19059.44, -15383.25, -17744.87, -20441.21, -22697.12, -20980.13, 0.000, 0.000, 0.000, 10:45:20.061, 1583739920061
51, -24848.25, -30177.45, -19089.30, -15388.80, -17926.14, -20445.63, -22847.08, -21069.33, 0.000, 0.000, 0.000, 10:45:20.061, 1583739920061
52, -25413.40, -30238.69, -19223.75, -15518.75, -18578.86, -20509.98, -23115.55, -21363.21, 0.000, 0.000, 0.000, 10:45:20.062, 1583739920062
53, -25603.27, -30249.64, -19281.55, -15569.26, -18822.22, -20528.82, -23183.65, -21483.38, 0.000, 0.000, 0.000, 10:45:20.062, 1583739920062
54, -25096.78, -30178.45, -19177.64, -15480.24, -18304.89, -20484.30, -22920.77, -21247.97, 0.000, 0.000, 0.000, 10:45:20.062, 1583739920062
55, -24585.00, -30128.41, -19061.28, -15389.04, -17744.80, -20446.62, -22693.93, -20987.68, 0.000, 0.000, 0.000, 10:45:20.062, 1583739920062
56, -24847.83, -30179.03, -19089.98, -15393.62, -17923.17, -20452.07, -22846.37, -21074.72, 0.000, 0.000, 0.000, 10:45:20.062, 1583739920062
57, -25410.27, -30236.48, -19218.83, -15521.54, -18572.80, -20511.99, -23113.42, -21361.29, 0.000, 0.000, 0.000, 10:45:20.062, 1583739920062
58, -25598.09, -30243.52, -19274.51, -15568.57, -18817.42, -20525.09, -23181.40, -21476.99, -0.002, -0.018, 0.972, 10:45:20.062, 1583739920062
59, -25097.68, -30180.08, -19178.18, -15476.57, -18303.55, -20481.08, -22923.66, -21242.72, 0.000, 0.000, 0.000, 10:45:20.062, 1583739920062
60, -24582.40, -30124.50, -19063.36, -15392.22, -17744.69, -20445.05, -22693.66, -20982.95, 0.000, 0.000, 0.000, 10:45:20.063, 1583739920063
61, -24852.10, -30188.71, -19094.29, -15390.23, -17922.05, -20447.51, -22847.93, -21069.69, 0.000, 0.000, 0.000, 10:45:20.063, 1583739920063
62, -25414.60, -30251.68, -19216.15, -15505.00, -18561.65, -20498.31, -23107.97, -21350.54, 0.000, 0.000, 0.000, 10:45:20.063, 1583739920063
63, -25600.44, -30255.68, -19268.97, -15553.62, -18808.14, -20510.61, -23172.70, -21467.55, 0.000, 0.000, 0.000, 10:45:20.063, 1583739920063
64, -25105.48, -30190.16, -19170.89, -15473.24, -18301.96, -20474.09, -22917.67, -21240.35, 0.000, 0.000, 0.000, 10:45:20.063, 1583739920063
65, -24590.29, -30135.54, -19053.86, -15382.20, -17738.43, -20436.69, -22687.29, -20980.22, 0.000, 0.000, 0.000, 10:45:20.063, 1583739920063
66, -24852.75, -30180.60, -19081.39, -15382.27, -17908.98, -20439.91, -22839.01, -21064.87, 0.000, 0.000, 0.000, 10:45:20.063, 1583739920063
67, -25416.91, -30246.33, -19215.06, -15510.17, -18560.82, -20503.88, -23106.88, -21354.28, 0.000, 0.000, 0.000, 10:45:20.064, 1583739920064
68, -25607.74, -30259.05, -19279.41, -15566.45, -18815.45, -20522.79, -23176.70, -21475.91, -0.002, -0.016, 0.970, 10:45:20.064, 1583739920064
69, -25116.90, -30197.81, -19186.49, -15483.10, -18314.15, -20486.56, -22927.05, -21250.72, 0.000, 0.000, 0.000, 10:45:20.064, 1583739920064
70, -24594.99, -30136.16, -19061.43, -15381.20, -17745.36, -20440.09, -22689.66, -20983.01, 0.000, 0.000, 0.000, 10:45:20.064, 1583739920064
71, -24855.70, -30184.11, -19092.23, -15388.59, -17918.10, -20447.51, -22839.71, -21070.47, 0.000, 0.000, 0.000, 10:45:20.064, 1583739920064
72, -25412.01, -30246.60, -19223.86, -15518.35, -18563.91, -20511.01, -23105.49, -21357.54, 0.000, 0.000, 0.000, 10:45:20.064, 1583739920064
73, -25600.57, -30248.82, -19269.53, -15555.63, -18810.22, -20514.95, -23168.79, -21466.93, 0.000, 0.000, 0.000, 10:45:20.065, 1583739920065
74, -25114.66, -30184.24, -19172.41, -15467.52, -18307.69, -20472.83, -22915.59, -21236.75, 0.000, 0.000, 0.000, 10:45:20.065, 1583739920065
75, -24604.06, -30147.25, -19061.77, -15383.97, -17750.44, -20440.47, -22689.63, -20979.23, 0.000, 0.000, 0.000, 10:45:20.065, 1583739920065
76, -24867.92, -30210.68, -19094.42, -15394.72, -17922.01, -20451.76, -22843.55, -21069.47, 0.000, 0.000, 0.000, 10:45:20.065, 1583739920065
77, -25420.86, -30273.07, -19222.61, -15522.77, -18565.27, -20512.04, -23105.58, -21351.84, 0.000, 0.000, 0.000, 10:45:20.065, 1583739920065
78, -25617.91, -30279.13, -19277.42, -15563.65, -18819.16, -20521.05, -23176.10, -21466.01, 0.000, 0.000, 0.000, 10:45:20.065, 1583739920065
79, -25141.76, -30217.81, -19181.19, -15477.67, -18318.60, -20479.76, -22926.21, -21241.55, 0.004, -0.018, 0.972, 10:45:20.065, 1583739920065
80, -24636.56, -30177.60, -19072.79, -15402.59, -17760.16, -20454.35, -22702.91, -20992.56, 0.000, 0.000, 0.000, 10:45:20.066, 1583739920066
81, -24901.32, -30232.95, -19100.77, -15393.71, -17923.88, -20453.32, -22852.11, -21074.14, 0.000, 0.000, 0.000, 10:45:20.066, 1583739920066
82, -25445.45, -30295.69, -19221.85, -15505.63, -18557.74, -20504.80, -23105.29, -21346.38, 0.000, 0.000, 0.000, 10:45:20.066, 1583739920066
83, -25650.46, -30318.29, -19282.20, -15558.42, -18817.60, -20523.28, -23177.33, -21470.84, 0.000, 0.000, 0.000, 10:45:20.066, 1583739920066
84, -25179.66, -30267.19, -19189.17, -15480.59, -18322.55, -20484.43, -22929.25, -21251.30, 0.000, 0.000, 0.000, 10:45:20.066, 1583739920066
85, -24686.74, -30229.75, -19083.90, -15398.88, -17767.24, -20454.35, -22706.31, -20998.55, 0.000, 0.000, 0.000, 10:45:20.066, 1583739920066
86, -24944.52, -30275.28, -19100.39, -15383.52, -17920.42, -20444.47, -22846.25, -21069.92, 0.000, 0.000, 0.000, 10:45:20.066, 1583739920066
87, -25495.92, -30351.43, -19226.10, -15512.45, -18557.27, -20508.17, -23104.91, -21349.87, 0.000, 0.000, 0.000, 10:45:20.066, 1583739920066
88, -25702.76, -30383.71, -19287.59, -15567.83, -18821.13, -20528.51, -23180.46, -21474.57, 0.000, 0.000, 0.000, 10:45:20.067, 1583739920067
89, -25249.02, -30337.62, -19193.35, -15480.24, -18332.59, -20486.07, -22937.63, -21257.00, 0.000, -0.016, 0.968, 10:45:20.067, 1583739920067
90, -24757.82, -30304.03, -19072.61, -15384.42, -17763.69, -20444.34, -22706.67, -20996.36, 0.000, 0.000, 0.000, 10:45:20.067, 1583739920067
91, -25030.69, -30371.24, -19102.11, -15385.20, -17926.39, -20449.25, -22858.10, -21081.70, 0.000, 0.000, 0.000, 10:45:20.067, 1583739920067
92, -25570.91, -30443.83, -19231.62, -15517.12, -18561.94, -20514.18, -23108.08, -21355.55, 0.000, 0.000, 0.000, 10:45:20.067, 1583739920067
93, -25780.32, -30477.85, -19292.42, -15571.77, -18826.14, -20532.58, -23181.48, -21478.17, 0.000, 0.000, 0.000, 10:45:20.067, 1583739920067
94, -25328.75, -30434.47, -19202.03, -15491.86, -18341.44, -20495.86, -22945.05, -21267.66, 0.000, 0.000, 0.000, 10:45:20.068, 1583739920068
95, -24838.42, -30402.10, -19094.13, -15403.91, -17781.37, -20460.56, -22721.49, -21013.03, 0.000, 0.000, 0.000, 10:45:20.068, 1583739920068
96, -25098.48, -30452.62, -19115.88, -15401.71, -17934.41, -20458.64, -22864.20, -21089.70, 0.000, 0.000, 0.000, 10:45:20.068, 1583739920068
97, -25617.40, -30497.55, -19229.61, -15525.83, -18559.35, -20518.77, -23108.89, -21357.67, 0.000, 0.000, 0.000, 10:45:20.068, 1583739920068
98, -25816.96, -30518.04, -19291.37, -15578.85, -18826.63, -20539.22, -23185.02, -21482.51, 0.000, 0.000, 0.000, 10:45:20.068, 1583739920068
99, -25360.89, -30467.93, -19195.79, -15481.09, -18341.86, -20489.62, -22946.43, -21265.92, -0.006, -0.020, 0.970, 10:45:20.069, 1583739920069
100, -24855.00, -30417.93, -19082.15, -15391.77, -17776.77, -20452.25, -22723.14, -21012.40, 0.000, 0.000, 0.000, 10:45:20.069, 1583739920069
101, -25111.22, -30469.61, -19103.70, -15380.75, -17929.81, -20450.66, -22873.17, -21091.15, 0.000, 0.000, 0.000, 10:45:20.069, 1583739920069
102, -25625.22, -30520.57, -19229.70, -15517.38, -18559.41, -20517.85, -23118.30, -21360.71, 0.000, 0.000, 0.000, 10:45:20.069, 1583739920069
103, -25810.32, -30523.68, -19289.98, -15576.77, -18822.74, -20538.06, -23186.00, -21481.66, 0.000, 0.000, 0.000, 10:45:20.069, 1583739920069
104, -25353.56, -30462.90, -19191.90, -15477.69, -18339.58, -20488.70, -22948.76, -21266.46, 0.000, 0.000, 0.000, 10:45:20.069, 1583739920069
105, -24853.55, -30420.48, -19081.62, -15391.79, -17775.72, -20454.51, -22725.89, -21015.82, 0.000, 0.000, 0.000, 10:45:20.070, 1583739920070
106, -25104.90, -30465.92, -19104.01, -15385.31, -17924.36, -20453.12, -22870.91, -21092.49, 0.000, 0.000, 0.000, 10:45:20.070, 1583739920070
107, -25613.33, -30511.18, -19229.70, -15518.37, -18552.86, -20521.29, -23116.58, -21361.76, 0.000, 0.000, 0.000, 10:45:20.070, 1583739920070
108, -25797.62, -30515.29, -19291.05, -15578.23, -18824.68, -20541.86, -23187.68, -21483.98, 0.000, 0.000, 0.000, 10:45:20.070, 1583739920070
109, -25347.64, -30454.94, -19204.73, -15498.23, -18353.91, -20503.28, -22958.13, -21278.19, -0.002, -0.020, 0.966, 10:45:20.070, 1583739920070
110, -24840.50, -30400.94, -19090.47, -15403.37, -17790.49, -20464.79, -22734.05, -21022.75, 0.000, 0.000, 0.000, 10:45:20.071, 1583739920071
111, -25089.43, -30447.23, -19113.11, -15395.52, -17940.00, -20465.05, -22881.46, -21100.20, 0.000, 0.000, 0.000, 10:45:20.071, 1583739920071
112, -25592.43, -30490.35, -19235.75, -15522.50, -18562.72, -20528.29, -23122.43, -21363.06, 0.000, 0.000, 0.000, 10:45:20.071, 1583739920071
113, -25775.05, -30490.57, -19293.49, -15578.34, -18829.62, -20544.47, -23190.40, -21481.99, 0.000, 0.000, 0.000, 10:45:20.071, 1583739920071
114, -25328.53, -30431.65, -19201.71, -15496.29, -18355.03, -20501.33, -22958.13, -21275.46, 0.000, 0.000, 0.000, 10:45:20.071, 1583739920071
115, -24816.56, -30371.75, -19084.72, -15402.50, -17781.57, -20458.08, -22726.83, -21018.15, 0.000, 0.000, 0.000, 10:45:20.072, 1583739920072
116, -25060.37, -30412.45, -19106.43, -15396.17, -17923.13, -20458.93, -22871.40, -21098.35, 0.000, 0.000, 0.000, 10:45:20.072, 1583739920072
117, -25563.06, -30457.49, -19224.13, -15519.69, -18541.58, -20518.56, -23107.54, -21357.38, 0.000, 0.000, 0.000, 10:45:20.072, 1583739920072
118, -25751.91, -30461.49, -19280.70, -15573.82, -18812.21, -20533.29, -23174.11, -21474.39, 0.000, 0.000, 0.000, 10:45:20.072, 1583739920072
119, -25305.91, -30402.71, -19191.74, -15489.31, -18344.77, -20491.95, -22942.37, -21269.27, 0.004, -0.016, 0.968, 10:45:20.072, 1583739920072
120, -24795.33, -30345.20, -19082.35, -15398.81, -17781.10, -20457.01, -22719.90, -21016.47, 0.000, 0.000, 0.000, 10:45:20.072, 1583739920072
121, -25036.08, -30383.98, -19104.37, -15391.83, -17922.48, -20455.91, -22863.02, -21092.02, 0.000, 0.000, 0.000, 10:45:20.528, 1583739920528
122, -25534.72, -30418.91, -19223.33, -15521.74, -18541.20, -20518.88, -23100.21, -21350.12, 0.000, 0.000, 0.000, 10:45:20.529, 1583739920529
123, -25728.56, -30431.36, -19288.04, -15583.50, -18818.18, -20539.93, -23174.36, -21474.88, 0.000, 0.000, 0.000, 10:45:20.529, 1583739920529
124, -25296.05, -30378.05, -19200.46, -15495.37, -18353.62, -20496.57, -22949.23, -21273.12, 0.000, 0.000, 0.000, 10:45:20.529, 1583739920529
125, -24780.28, -30321.62, -19078.60, -15389.60, -17776.99, -20448.67, -22716.35, -21008.45, 0.000, 0.000, 0.000, 10:45:20.529, 1583739920529
126, -25015.11, -30360.78, -19094.31, -15375.21, -17911.06, -20441.85, -22856.07, -21076.78, 0.000, 0.000, 0.000, 10:45:20.529, 1583739920529
127, -25507.65, -30394.88, -19219.75, -15514.55, -18531.81, -20510.63, -23092.06, -21339.90, 0.000, 0.000, 0.000, 10:45:20.529, 1583739920529
128, -25698.80, -30397.63, -19295.93, -15597.07, -18820.91, -20543.85, -23171.94, -21473.12, 0.000, 0.000, 0.000, 10:45:20.529, 1583739920529
129, -25269.23, -30345.08, -19211.41, -15516.83, -18366.41, -20505.47, -22953.36, -21277.00, 0.002, -0.018, 0.964, 10:45:20.530, 1583739920530
130, -24757.35, -30295.29, -19084.97, -15404.13, -17787.79, -20457.54, -22722.67, -21015.31, 0.000, 0.000, 0.000, 10:45:20.530, 1583739920530
131, -24991.66, -30325.95, -19095.36, -15381.06, -17915.10, -20448.45, -22858.99, -21081.52, 0.000, 0.000, 0.000, 10:45:20.530, 1583739920530
132, -25479.07, -30360.33, -19210.32, -15496.11, -18521.57, -20499.39, -23084.95, -21328.06, 0.000, 0.000, 0.000, 10:45:20.536, 1583739920536
133, -25676.70, -30375.48, -19284.19, -15572.59, -18812.86, -20530.57, -23167.72, -21463.13, 0.000, 0.000, 0.000, 10:45:20.536, 1583739920536
134, -25245.65, -30314.22, -19193.15, -15489.29, -18352.55, -20488.32, -22944.54, -21264.58, 0.000, 0.000, 0.000, 10:45:20.537, 1583739920537
135, -24730.91, -30257.20, -19067.13, -15388.75, -17772.36, -20442.70, -22711.16, -21003.75, 0.000, 0.000, 0.000, 10:45:20.537, 1583739920537
136, -24962.07, -30303.58, -19080.63, -15368.66, -17896.66, -20433.90, -22847.04, -21071.23, 0.000, 0.000, 0.000, 10:45:20.537, 1583739920537
137, -25454.93, -30345.76, -19200.08, -15497.65, -18510.31, -20496.68, -23078.53, -21326.51, 0.000, 0.000, 0.000, 10:45:20.538, 1583739920538
138, -25653.48, -30348.64, -19261.44, -15556.46, -18793.88, -20514.32, -23151.15, -21451.06, 0.000, 0.000, 0.000, 10:45:20.538, 1583739920538
139, -25230.98, -30292.07, -19172.88, -15462.98, -18336.28, -20466.53, -22929.29, -21251.68, -0.006, -0.018, 0.966, 10:45:20.538, 1583739920538
140, -24720.36, -30235.81, -19066.08, -15375.74, -17768.74, -20433.58, -22704.88, -20998.50, 0.000, 0.000, 0.000, 10:45:20.538, 1583739920538
141, -24953.53, -30280.00, -19092.57, -15375.79, -17900.37, -20440.71, -22847.93, -21075.62, 0.000, 0.000, 0.000, 10:45:20.538, 1583739920538
142, -25442.63, -30322.29, -19207.08, -15502.32, -18513.30, -20501.29, -23078.38, -21329.84, 0.000, 0.000, 0.000, 10:45:20.539, 1583739920539
143, -25642.37, -30330.00, -19274.06, -15571.14, -18808.90, -20529.21, -23164.16, -21464.65, 0.000, 0.000, 0.000, 10:45:20.539, 1583739920539
144, -25215.22, -30271.44, -19190.47, -15483.63, -18354.94, -20484.93, -22944.31, -21267.28, 0.000, 0.000, 0.000, 10:45:20.539, 1583739920539
145, -24697.60, -30216.23, -19069.10, -15384.10, -17775.00, -20439.02, -22711.32, -21003.80, 0.000, 0.000, 0.000, 10:45:20.539, 1583739920539
146, -24930.06, -30257.80, -19092.10, -15377.60, -17905.67, -20441.09, -22856.02, -21077.11, 0.000, 0.000, 0.000, 10:45:20.539, 1583739920539
147, -25415.03, -30296.29, -19209.42, -15501.76, -18517.37, -20501.18, -23085.89, -21328.57, 0.000, 0.000, 0.000, 10:45:20.539, 1583739920539
148, -25612.46, -30297.97, -19275.38, -15567.52, -18808.14, -20524.18, -23162.60, -21458.70, 0.000, 0.000, 0.000, 10:45:20.540, 1583739920540
149, -25197.30, -30245.73, -19191.65, -15484.89, -18359.95, -20484.32, -22945.12, -21267.13, 0.002, -0.018, 0.968, 10:45:20.540, 1583739920540
150, -24686.96, -30196.45, -19082.06, -15394.29, -17786.22, -20449.41, -22719.34, -21013.32, 0.000, 0.000, 0.000, 10:45:20.540, 1583739920540
151, -24915.98, -30241.48, -19104.08, -15386.47, -17906.92, -20449.63, -22858.39, -21081.65, 0.000, 0.000, 0.000, 10:45:20.540, 1583739920540
152, -25407.58, -30283.91, -19223.77, -15516.89, -18521.55, -20512.04, -23091.01, -21333.11, 0.000, 0.000, 0.000, 10:45:20.540, 1583739920540
153, -25605.00, -30285.92, -19277.08, -15571.36, -18807.81, -20525.70, -23160.27, -21455.71, 0.000, 0.000, 0.000, 10:45:20.540, 1583739920540
154, -25185.19, -30221.64, -19185.91, -15485.27, -18355.47, -20479.94, -22935.77, -21259.82, 0.000, 0.000, 0.000, 10:45:20.542, 1583739920542
155, -24678.27, -30177.54, -19083.67, -15400.93, -17789.66, -20451.04, -22717.57, -21009.66, 0.000, 0.000, 0.000, 10:45:20.542, 1583739920542
156, -24901.61, -30231.87, -19109.33, -15385.80, -17909.87, -20448.22, -22857.36, -21074.28, 0.000, 0.000, 0.000, 10:45:20.542, 1583739920542
157, -25392.05, -30274.14, -19217.45, -15508.87, -18514.44, -20507.43, -23083.23, -21324.93, 0.000, 0.000, 0.000, 10:45:20.542, 1583739920542
158, -25591.27, -30272.55, -19260.88, -15569.93, -18797.62, -20523.79, -23149.50, -21448.58, 0.000, 0.000, 0.000, 10:45:20.542, 1583739920542
159, -25179.71, -30215.60, -19173.19, -15474.80, -18350.04, -20474.55, -22935.15, -21253.18, 0.006, -0.016, 0.968, 10:45:20.542, 1583739920542
160, -24664.30, -30159.63, -19063.02, -15371.99, -17773.79, -20433.00, -22709.39, -20992.78, 0.000, 0.000, 0.000, 10:45:20.543, 1583739920543
161, -24886.52, -30204.04, -19086.51, -15363.85, -17890.16, -20435.06, -22846.90, -21058.25, 0.000, 0.000, 0.000, 10:45:20.543, 1583739920543
162, -25381.14, -30251.54, -19211.46, -15507.15, -18511.31, -20507.75, -23084.43, -21320.35, 0.000, 0.000, 0.000, 10:45:20.543, 1583739920543
163, -25591.21, -30261.94, -19282.78, -15586.52, -18819.61, -20538.93, -23169.13, -21460.15, 0.000, 0.000, 0.000, 10:45:20.543, 1583739920543
164, -25187.49, -30213.95, -19204.53, -15501.98, -18381.34, -20496.95, -22957.50, -21272.96, 0.000, 0.000, 0.000, 10:45:20.543, 1583739920543
165, -24663.56, -30150.15, -19083.49, -15396.28, -17793.87, -20449.65, -22720.64, -21006.57, 0.000, 0.000, 0.000, 10:45:20.544, 1583739920544
166, -24889.65, -30198.50, -19105.06, -15392.06, -17909.38, -20454.21, -22859.55, -21074.63, 0.000, 0.000, 0.000, 10:45:20.544, 1583739920544
167, -25377.66, -30248.10, -19208.80, -15498.83, -18508.72, -20501.04, -23080.30, -21315.25, 0.000, 0.000, 0.000, 10:45:20.544, 1583739920544
168, -25584.10, -30263.39, -19274.15, -15565.64, -18812.93, -20523.13, -23159.51, -21446.54, 0.000, 0.000, 0.000, 10:45:20.544, 1583739920544
169, -25177.76, -30214.97, -19190.78, -15485.24, -18374.65, -20482.67, -22948.11, -21259.53, 0.000, 0.000, 0.000, 10:45:20.544, 1583739920544
170, -24658.87, -30158.92, -19077.68, -15393.44, -17790.60, -20446.41, -22714.15, -21000.18, 0.004, -0.018, 0.976, 10:45:20.544, 1583739920544
171, -24877.54, -30203.80, -19097.60, -15373.55, -17898.09, -20441.41, -22847.19, -21061.29, 0.000, 0.000, 0.000, 10:45:20.545, 1583739920545
172, -25371.93, -30251.12, -19220.35, -15507.37, -18518.15, -20509.00, -23083.45, -21318.91, 0.000, 0.000, 0.000, 10:45:20.545, 1583739920545
173, -25580.81, -30254.58, -19287.57, -15584.33, -18823.05, -20536.65, -23162.71, -21454.77, 0.000, 0.000, 0.000, 10:45:20.546, 1583739920546
174, -25183.33, -30206.41, -19205.42, -15500.29, -18387.10, -20494.07, -22953.16, -21269.16, 0.000, 0.000, 0.000, 10:45:20.546, 1583739920546
175, -24662.02, -30151.74, -19089.26, -15403.03, -17799.74, -20452.05, -22718.58, -21006.55, 0.000, 0.000, 0.000, 10:45:20.546, 1583739920546
176, -24876.06, -30196.38, -19096.68, -15380.48, -17895.83, -20442.73, -22844.38, -21061.18, 0.000, 0.000, 0.000, 10:45:20.546, 1583739920546
177, -25367.51, -30241.55, -19206.83, -15501.58, -18501.92, -20501.09, -23071.67, -21312.21, 0.000, 0.000, 0.000, 10:45:20.547, 1583739920547
178, -25579.25, -30249.75, -19274.89, -15564.08, -18809.21, -20522.28, -23151.76, -21443.86, 0.000, 0.000, 0.000, 10:45:20.547, 1583739920547
179, -25179.82, -30199.69, -19193.00, -15479.01, -18374.50, -20478.98, -22943.21, -21256.89, 0.000, 0.000, 0.000, 10:45:20.547, 1583739920547
180, -24656.19, -30147.47, -19073.62, -15385.08, -17788.68, -20439.15, -22707.79, -20995.13, 0.000, -0.018, 0.970, 10:45:20.547, 1583739920547
181, -24869.18, -30188.64, -19087.52, -15370.42, -17886.67, -20436.04, -22835.26, -21054.18, 0.000, 0.000, 0.000, 10:45:20.547, 1583739920547
182, -25367.51, -30248.08, -19210.81, -15505.09, -18503.71, -20505.82, -23069.95, -21314.27, 0.000, 0.000, 0.000, 10:45:20.547, 1583739920547
183, -25579.54, -30257.58, -19279.54, -15579.37, -18814.83, -20532.33, -23151.09, -21452.35, 0.000, 0.000, 0.000, 10:45:20.548, 1583739920548
184, -25185.36, -30199.15, -19193.49, -15495.15, -18379.17, -20487.97, -22941.18, -21267.57, 0.000, 0.000, 0.000, 10:45:20.548, 1583739920548
185, -24661.21, -30149.57, -19072.32, -15387.32, -17788.63, -20441.61, -22702.55, -20999.96, 0.000, 0.000, 0.000, 10:45:20.548, 1583739920548
186, -24865.96, -30191.37, -19089.57, -15373.73, -17884.52, -20438.95, -22830.83, -21055.59, 0.000, 0.000, 0.000, 10:45:20.549, 1583739920549
187, -25360.76, -30232.68, -19207.50, -15507.55, -18497.68, -20505.04, -23067.38, -21309.97, 0.000, 0.000, 0.000, 10:45:20.549, 1583739920549
188, -25580.32, -30248.17, -19277.69, -15579.37, -18815.59, -20530.61, -23155.33, -21448.49, 0.000, 0.000, 0.000, 10:45:20.549, 1583739920549
189, -25185.81, -30195.39, -19194.36, -15485.82, -18382.95, -20479.05, -22943.53, -21258.52, 0.000, 0.000, 0.000, 10:45:20.550, 1583739920550
190, -24663.45, -30146.11, -19075.51, -15387.66, -17793.71, -20439.15, -22707.56, -20997.23, 0.006, -0.018, 0.972, 10:45:20.550, 1583739920550
191, -24868.77, -30191.42, -19088.43, -15377.87, -17885.80, -20439.37, -22835.41, -21055.50, 0.000, 0.000, 0.000, 10:45:20.550, 1583739920550
192, -25356.87, -30235.67, -19195.37, -15492.84, -18486.01, -20492.21, -23061.90, -21299.33, 0.000, 0.000, 0.000, 10:45:20.550, 1583739920550
193, -25572.99, -30240.57, -19267.11, -15566.65, -18803.49, -20518.14, -23145.37, -21436.51, 0.000, 0.000, 0.000, 10:45:20.550, 1583739920550
194, -25183.51, -30189.72, -19191.88, -15492.08, -18384.96, -20481.33, -22945.09, -21259.26, 0.000, 0.000, 0.000, 10:45:20.551, 1583739920551
195, -24658.80, -30143.14, -19074.84, -15382.02, -17793.20, -20434.81, -22710.42, -20993.07, 0.000, 0.000, 0.000, 10:45:20.551, 1583739920551
196, -24858.85, -30185.67, -19080.83, -15355.58, -17872.46, -20424.26, -22828.69, -21041.10, 0.000, 0.000, 0.000, 10:45:20.551, 1583739920551
197, -25352.31, -30227.51, -19198.05, -15486.99, -18483.42, -20489.35, -23059.78, -21293.39, 0.000, 0.000, 0.000, 10:45:20.552, 1583739920552
198, -25572.90, -30233.35, -19274.94, -15573.31, -18810.69, -20525.07, -23149.95, -21439.70, 0.000, 0.000, 0.000, 10:45:20.552, 1583739920552
199, -25189.16, -30189.88, -19197.76, -15497.54, -18393.72, -20488.19, -22951.13, -21266.01, 0.000, 0.000, 0.000, 10:45:20.553, 1583739920553
200, -24663.05, -30143.49, -19076.90, -15396.19, -17799.77, -20446.95, -22711.21, -21001.52, 0.008, -0.018, 0.974, 10:45:20.554, 1583739920554
201, -24859.39, -30188.33, -19088.28, -15374.83, -17880.14, -20440.65, -22831.28, -21052.24, 0.000, 0.000, 0.000, 10:45:20.555, 1583739920555
202, -25356.47, -30237.91, -19205.13, -15503.59, -18489.59, -20506.70, -23064.92, -21308.90, 0.000, 0.000, 0.000, 10:45:20.556, 1583739920556
203, -25579.78, -30249.91, -19276.86, -15581.00, -18815.16, -20535.22, -23153.30, -21450.90, 0.000, 0.000, 0.000, 10:45:20.557, 1583739920557
204, -25194.75, -30199.13, -19195.81, -15493.49, -18394.35, -20489.96, -22948.67, -21270.21, 0.000, 0.000, 0.000, 10:45:20.558, 1583739920558
205, -24657.35, -30137.50, -19072.36, -15392.01, -17795.63, -20446.06, -22704.74, -21000.29, 0.000, 0.000, 0.000, 10:45:20.559, 1583739920559
206, -24858.42, -30182.72, -19091.63, -15382.60, -17882.22, -20447.17, -22834.99, -21056.59, 0.000, 0.000, 0.000, 10:45:20.559, 1583739920559
207, -25344.06, -30220.70, -19200.39, -15498.79, -18480.78, -20500.64, -23058.51, -21300.12, 0.000, 0.000, 0.000, 10:45:20.559, 1583739920559
208, -25563.62, -30230.53, -19268.30, -15569.78, -18804.75, -20525.12, -23145.83, -21438.59, 0.000, 0.000, 0.000, 10:45:20.559, 1583739920559
209, -25182.05, -30180.96, -19188.59, -15477.53, -18385.14, -20476.03, -22946.03, -21256.40, 0.000, 0.000, 0.000, 10:45:20.560, 1583739920560
210, -24654.87, -30134.62, -19079.58, -15390.87, -17796.10, -20443.22, -22715.09, -20996.54, 0.000, -0.016, 0.978, 10:45:20.560, 1583739920560
211, -24850.80, -30182.70, -19091.74, -15369.75, -17873.42, -20436.47, -22837.18, -21047.27, 0.000, 0.000, 0.000, 10:45:20.560, 1583739920560
212, -25340.48, -30219.38, -19193.76, -15484.59, -18474.54, -20490.34, -23058.77, -21292.74, 0.000, 0.000, 0.000, 10:45:20.560, 1583739920560
213, -25565.41, -30226.96, -19264.90, -15569.67, -18807.09, -20524.22, -23147.78, -21440.04, 0.000, 0.000, 0.000, 10:45:20.560, 1583739920560
214, -25196.83, -30192.11, -19201.64, -15500.51, -18400.58, -20493.58, -22957.61, -21275.22, 0.000, 0.000, 0.000, 10:45:20.560, 1583739920560
215, -24667.74, -30154.16, -19085.84, -15395.32, -17802.36, -20451.51, -22717.44, -21007.67, 0.000, 0.000, 0.000, 10:45:20.561, 1583739920561
216, -24859.59, -30198.50, -19095.29, -15373.44, -17872.92, -20445.41, -22837.36, -21052.59, 0.000, 0.000, 0.000, 10:45:20.561, 1583739920561
217, -25353.85, -30247.72, -19206.90, -15502.45, -18477.27, -20507.84, -23065.90, -21301.68, 0.000, 0.000, 0.000, 10:45:20.561, 1583739920561
218, -25572.92, -30253.29, -19268.23, -15574.52, -18800.63, -20528.38, -23144.07, -21437.38, 0.000, 0.000, 0.000, 10:45:20.561, 1583739920561
219, -25202.89, -30208.61, -19200.73, -15501.09, -18399.75, -20494.18, -22956.00, -21271.42, 0.000, 0.000, 0.000, 10:45:20.561, 1583739920561
220, -24668.12, -30149.91, -19090.13, -15411.46, -17807.23, -20459.80, -22720.35, -21008.98, 0.000, -0.020, 0.972, 10:45:20.561, 1583739920561
221, -24849.69, -30190.30, -19093.57, -15378.80, -17867.47, -20444.51, -22832.33, -21048.23, 0.000, 0.000, 0.000, 10:45:20.561, 1583739920561
222, -25338.14, -30232.16, -19195.86, -15482.40, -18461.78, -20492.32, -23054.62, -21287.64, 0.000, 0.000, 0.000, 10:45:20.562, 1583739920562
223, -25565.28, -30238.53, -19271.72, -15570.72, -18800.77, -20527.21, -23147.71, -21432.89, 0.000, 0.000, 0.000, 10:45:20.562, 1583739920562
224, -25192.96, -30188.27, -19201.58, -15495.55, -18399.58, -20490.49, -22957.25, -21266.50, 0.000, 0.000, 0.000, 10:45:20.562, 1583739920562
225, -24655.56, -30139.34, -19083.27, -15389.44, -17798.80, -20446.30, -22714.02, -20998.59, 0.000, 0.000, 0.000, 10:45:20.562, 1583739920562
226, -24836.77, -30179.75, -19087.54, -15361.73, -17860.74, -20434.46, -22827.21, -21038.85, 0.000, 0.000, 0.000, 10:45:20.562, 1583739920562
227, -25331.39, -30225.41, -19197.38, -15480.19, -18462.72, -20492.37, -23056.72, -21287.33, 0.000, 0.000, 0.000, 10:45:20.562, 1583739920562
228, -25562.88, -30240.72, -19270.69, -15560.57, -18800.90, -20521.54, -23147.64, -21432.35, 0.000, 0.000, 0.000, 10:45:20.563, 1583739920563
229, -25196.94, -30194.50, -19198.40, -15493.02, -18398.32, -20486.42, -22955.51, -21265.94, 0.000, 0.000, 0.000, 10:45:20.563, 1583739920563
230, -24659.88, -30145.51, -19080.48, -15396.46, -17798.18, -20447.53, -22713.44, -20999.73, 0.000, -0.022, 0.976, 10:45:20.563, 1583739920563
231, -24835.96, -30190.88, -19085.73, -15365.95, -17857.12, -20436.24, -22826.79, -21038.36, 0.000, 0.000, 0.000, 10:45:20.563, 1583739920563
232, -25328.62, -30236.14, -19200.04, -15490.41, -18461.11, -20498.65, -23059.20, -21289.10, 0.000, 0.000, 0.000, 10:45:20.563, 1583739920563
233, -25561.23, -30244.35, -19272.10, -15571.39, -18800.25, -20528.67, -23148.07, -21437.15, 0.000, 0.000, 0.000, 10:45:20.563, 1583739920563
234, -25195.98, -30198.86, -19208.51, -15503.39, -18407.49, -20496.64, -22962.39, -21276.92, 0.000, 0.000, 0.000, 10:45:20.563, 1583739920563
235, -24657.42, -30143.56, -19083.29, -15397.07, -17803.46, -20452.94, -22717.73, -21007.11, 0.000, 0.000, 0.000, 10:45:20.563, 1583739920563
236, -24828.88, -30173.65, -19082.38, -15363.49, -17854.77, -20436.51, -22823.92, -21037.80, 0.000, 0.000, 0.000, 10:45:20.564, 1583739920564
237, -25322.60, -30227.47, -19196.08, -15486.27, -18458.83, -20495.99, -23053.25, -21284.65, 0.000, 0.000, 0.000, 10:45:20.564, 1583739920564
238, -25559.53, -30241.66, -19276.79, -15576.84, -18803.65, -20530.99, -23146.84, -21435.93, 0.000, 0.000, 0.000, 10:45:20.564, 1583739920564
239, -25199.71, -30200.31, -19204.95, -15504.71, -18407.46, -20493.44, -22960.29, -21272.04, 0.000, 0.000, 0.000, 10:45:20.564, 1583739920564
240, -24663.79, -30151.70, -19086.45, -15403.91, -17806.83, -20454.28, -22721.35, -21006.10, 0.010, -0.020, 0.978, 10:45:20.564, 1583739920564
241, -24832.77, -30191.01, -19092.61, -15372.57, -17860.25, -20441.72, -22830.07, -21041.35, 0.000, 0.000, 0.000, 10:45:21.009, 1583739921009
242, -25328.41, -30236.92, -19199.83, -15482.87, -18458.63, -20496.95, -23060.18, -21287.18, 0.000, 0.000, 0.000, 10:45:21.010, 1583739921010
243, -25564.20, -30246.07, -19267.52, -15558.56, -18801.59, -20522.52, -23148.52, -21431.25, 0.000, 0.000, 0.000, 10:45:21.010, 1583739921010
244, -25203.29, -30195.35, -19193.76, -15487.39, -18406.19, -20484.17, -22956.49, -21266.72, 0.000, 0.000, 0.000, 10:45:21.010, 1583739921010
245, -24660.01, -30139.40, -19078.96, -15392.93, -17801.76, -20444.36, -22710.80, -20997.47, 0.000, 0.000, 0.000, 10:45:21.011, 1583739921011
246, -24828.59, -30182.99, -19084.92, -15365.24, -17848.87, -20434.34, -22816.95, -21031.40, 0.000, 0.000, 0.000, 10:45:21.011, 1583739921011
247, -25325.35, -30235.25, -19199.23, -15492.22, -18452.64, -20498.38, -23050.21, -21283.46, 0.000, 0.000, 0.000, 10:45:21.011, 1583739921011
248, -25562.48, -30245.24, -19268.39, -15570.94, -18801.66, -20525.76, -23143.55, -21431.63, 0.000, 0.000, 0.000, 10:45:21.011, 1583739921011
249, -25206.02, -30198.19, -19192.46, -15481.58, -18408.49, -20477.71, -22954.50, -21262.48, 0.000, 0.000, 0.000, 10:45:21.011, 1583739921011
250, -24657.48, -30138.06, -19073.23, -15379.65, -17803.48, -20437.25, -22709.57, -20992.85, 0.008, -0.018, 0.972, 10:45:21.014, 1583739921014
251, -24821.75, -30178.52, -19084.57, -15365.44, -17854.10, -20436.04, -22819.92, -21030.67, 0.000, 0.000, 0.000, 10:45:21.014, 1583739921014
252, -25331.03, -30240.70, -19211.03, -15491.48, -18465.51, -20503.75, -23062.80, -21287.85, 0.000, 0.000, 0.000, 10:45:21.014, 1583739921014
253, -25564.92, -30243.23, -19269.88, -15562.85, -18804.57, -20522.39, -23146.62, -21426.87, 0.000, 0.000, 0.000, 10:45:21.015, 1583739921015
254, -25212.54, -30196.38, -19193.46, -15489.36, -18413.23, -20482.67, -22960.31, -21266.52, 0.000, 0.000, 0.000, 10:45:21.015, 1583739921015
255, -24662.94, -30141.26, -19076.03, -15390.99, -17808.57, -20441.88, -22717.13, -20996.42, 0.000, 0.000, 0.000, 10:45:21.015, 1583739921015
0, -24821.10, -30176.78, -19082.85, -15368.14, -17853.97, -20435.10, -22826.76, -21032.92, 0.000, 0.000, 0.000, 10:45:21.015, 1583739921015
1, -25318.98, -30228.81, -19199.39, -15491.59, -18454.94, -20496.10, -23059.69, -21286.08, 0.000, 0.000, 0.000, 10:45:21.016, 1583739921016
2, -25559.71, -30239.05, -19275.92, -15574.29, -18809.35, -20527.33, -23154.98, -21437.94, 0.000, 0.000, 0.000, 10:45:21.016, 1583739921016
3, -25210.84, -30195.15, -19208.89, -15501.76, -18426.53, -20492.23, -22971.63, -21279.91, 0.000, 0.000, 0.000, 10:45:21.016, 1583739921016
4, -24661.37, -30131.80, -19086.49, -15399.93, -17814.79, -20450.55, -22719.54, -21006.06, 0.000, 0.000, 0.000, 10:45:21.016, 1583739921016
5, -24821.37, -30175.17, -19089.89, -15373.53, -17854.53, -20441.27, -22823.21, -21036.10, 0.006, -0.022, 0.974, 10:45:21.016, 1583739921016
6, -25318.63, -30226.08, -19200.84, -15491.12, -18452.57, -20500.33, -23054.50, -21283.13, 0.000, 0.000, 0.000, 10:45:21.017, 1583739921017
7, -25562.39, -30235.70, -19272.05, -15566.33, -18803.76, -20527.15, -23149.50, -21432.39, 0.000, 0.000, 0.000, 10:45:21.017, 1583739921017
8, -25218.29, -30197.70, -19198.99, -15493.47, -18424.23, -20488.57, -22966.33, -21273.96, 0.000, 0.000, 0.000, 10:45:21.017, 1583739921017
9, -24672.57, -30150.18, -19083.52, -15403.19, -17816.49, -20452.87, -22720.12, -21005.07, 0.000, 0.000, 0.000, 10:45:21.017, 1583739921017
10, -24827.15, -30191.15, -19089.73, -15382.67, -17852.72, -20446.19, -22823.46, -21036.57, 0.000, 0.000, 0.000, 10:45:21.017, 1583739921017
11, -25325.71, -30241.73, -19193.46, -15484.55, -18445.49, -20496.15, -23054.75, -21278.53, 0.000, 0.000, 0.000, 10:45:21.018, 1583739921018
12, -25566.80, -30248.32, -19259.96, -15557.98, -18797.73, -20519.15, -23146.37, -21426.25, 0.000, 0.000, 0.000, 10:45:21.018, 1583739921018
13, -25221.62, -30202.26, -19194.47, -15489.36, -18420.05, -20482.78, -22965.86, -21270.54, 0.000, 0.000, 0.000, 10:45:21.018, 1583739921018
14, -24665.57, -30137.68, -19070.37, -15379.36, -17804.93, -20434.50, -22713.26, -20992.51, 0.000, 0.000, 0.000, 10:45:21.018, 1583739921018
15, -24818.77, -30173.89, -19075.51, -15351.92, -17836.69, -20425.76, -22814.92, -21021.95, 0.008, -0.016, 0.966, 10:45:21.018, 1583739921018
16, -25319.07, -30226.11, -19186.27, -15474.72, -18435.99, -20486.80, -23051.13, -21274.01, 0.000, 0.000, 0.000, 10:45:21.018, 1583739921018
17, -25565.07, -30238.47, -19261.39, -15563.68, -18798.02, -20520.02, -23149.57, -21428.10, 0.000, 0.000, 0.000, 10:45:21.018, 1583739921018
18, -25226.94, -30198.30, -19199.12, -15497.85, -18425.03, -20487.36, -22971.92, -21277.27, 0.000, 0.000, 0.000, 10:45:21.019, 1583739921019
19, -24671.01, -30139.22, -19079.76, -15401.78, -17814.00, -20446.86, -22718.38, -21004.09, 0.000, 0.000, 0.000, 10:45:21.019, 1583739921019
20, -24816.27, -30177.54, -19080.90, -15363.23, -17837.92, -20429.52, -22814.51, -21023.60, 0.000, 0.000, 0.000, 10:45:21.019, 1583739921019
21, -25322.49, -30235.67, -19198.65, -15484.46, -18439.56, -20494.07, -23055.09, -21277.34, 0.000, 0.000, 0.000, 10:45:21.019, 1583739921019
22, -25567.91, -30245.13, -19269.64, -15567.77, -18800.95, -20524.06, -23151.82, -21432.35, 0.000, 0.000, 0.000, 10:45:21.020, 1583739921020
23, -25223.63, -30194.57, -19201.27, -15489.02, -18426.64, -20482.71, -22970.06, -21275.31, 0.000, 0.000, 0.000, 10:45:21.020, 1583739921020
24, -24669.15, -30132.23, -19076.56, -15386.63, -17810.99, -20439.08, -22716.72, -20998.84, 0.000, 0.000, 0.000, 10:45:21.020, 1583739921020
25, -24815.62, -30171.03, -19076.25, -15352.54, -17833.14, -20425.52, -22812.99, -21022.62, 0.000, -0.022, 0.970, 10:45:21.020, 1583739921020
26, -25316.75, -30226.11, -19194.92, -15480.37, -18431.92, -20491.72, -23049.92, -21276.16, 0.000, 0.000, 0.000, 10:45:21.020, 1583739921020
27, -25566.55, -30242.40, -19273.10, -15571.77, -18800.25, -20527.69, -23151.53, -21434.12, 0.000, 0.000, 0.000, 10:45:21.020, 1583739921020
28, -25226.94, -30193.90, -19202.79, -15493.33, -18429.93, -20485.02, -22970.64, -21275.64, 0.000, 0.000, 0.000, 10:45:21.020, 1583739921020
29, -24670.56, -30133.32, -19084.86, -15393.24, -17815.32, -20443.87, -22718.74, -21001.18, 0.000, 0.000, 0.000, 10:45:21.022, 1583739921022
30, -24816.47, -30180.15, -19094.49, -15380.59, -17844.58, -20445.19, -22821.26, -21034.33, 0.000, 0.000, 0.000, 10:45:21.022, 1583739921022
31, -25311.83, -30229.75, -19206.88, -15501.45, -18441.11, -20504.51, -23056.43, -21281.05, 0.000, 0.000, 0.000, 10:45:21.022, 1583739921022
32, -25551.06, -30226.53, -19269.15, -15550.55, -18794.46, -20510.65, -23142.93, -21417.46, 0.000, 0.000, 0.000, 10:45:21.022, 1583739921022
33, -25223.65, -30190.70, -19201.53, -15474.92, -18427.83, -20471.60, -22966.46, -21265.61, 0.000, 0.000, 0.000, 10:45:21.022, 1583739921022
34, -24670.11, -30134.58, -19082.11, -15387.77, -17813.42, -20437.65, -22714.42, -20996.33, 0.000, 0.000, 0.000, 10:45:21.022, 1583739921022
35, -24809.97, -30171.39, -19082.55, -15362.51, -17831.86, -20428.24, -22810.56, -21019.74, 0.002, -0.020, 0.980, 10:45:21.022, 1583739921022
36, -25309.19, -30228.97, -19191.19, -15480.46, -18424.54, -20487.43, -23043.06, -21268.33, 0.000, 0.000, 0.000, 10:45:21.022, 1583739921022
37, -25567.44, -30246.07, -19272.48, -15571.21, -18799.69, -20526.08, -23149.39, -21432.69, 0.000, 0.000, 0.000, 10:45:21.022, 1583739921022
38, -25238.27, -30197.38, -19205.60, -15494.16, -18437.80, -20484.95, -22971.07, -21280.47, 0.000, 0.000, 0.000, 10:45:21.023, 1583739921023
39, -24673.22, -30135.92, -19075.87, -15386.02, -17810.74, -20438.37, -22706.82, -20997.14, 0.000, 0.000, 0.000, 10:45:21.023, 1583739921023
40, -24803.64, -30175.01, -19072.63, -15357.73, -17821.47, -20429.43, -22798.13, -21016.47, 0.000, 0.000, 0.000, 10:45:21.023, 1583739921023
41, -25305.57, -30228.77, -19186.27, -15476.15, -18416.47, -20490.49, -23036.78, -21265.87, 0.000, 0.000, 0.000, 10:45:21.023, 1583739921023
42, -25565.14, -30246.02, -19275.00, -15575.54, -18798.91, -20531.46, -23146.10, -21430.61, 0.000, 0.000, 0.000, 10:45:21.023, 1583739921023
43, -25233.93, -30201.16, -19219.44, -15507.75, -18445.84, -20494.43, -22974.87, -21282.23, 0.000, 0.000, 0.000, 10:45:21.023, 1583739921023
44, -24672.77, -30142.11, -19085.68, -15395.03, -17819.97, -20444.89, -22713.10, -21000.80, 0.000, 0.000, 0.000, 10:45:21.023, 1583739921023
45, -24802.41, -30169.22, -19069.93, -15354.60, -17818.68, -20427.39, -22798.24, -21013.92, 0.002, -0.016, 0.974, 10:45:21.024, 1583739921024
46, -25302.80, -30227.40, -19183.76, -15473.02, -18413.79, -20486.96, -23035.97, -21261.56, 0.000, 0.000, 0.000, 10:45:21.024, 1583739921024
47, -25563.73, -30247.43, -19268.37, -15569.15, -18797.84, -20525.99, -23144.47, -21426.13, 0.000, 0.000, 0.000, 10:45:21.024, 1583739921024
48, -25246.85, -30209.37, -19208.31, -15503.62, -18450.18, -20494.69, -22977.26, -21283.93, 0.000, 0.000, 0.000, 10:45:21.024, 1583739921024
49, -24681.96, -30146.78, -19085.01, -15405.27, -17829.20, -20454.62, -22719.72, -21008.49, 0.000, 0.000, 0.000, 10:45:21.024, 1583739921024
50, -24810.17, -30181.18, -19083.79, -15366.18, -17834.93, -20440.92, -22811.07, -21026.35, 0.000, 0.000, 0.000, 10:45:21.024, 1583739921024
51, -25309.46, -30237.82, -19191.92, -15473.38, -18425.03, -20493.35, -23045.30, -21270.17, 0.000, 0.000, 0.000, 10:45:21.025, 1583739921025
52, -25568.14, -30250.98, -19270.58, -15566.20, -18806.73, -20527.86, -23149.90, -21430.72, 0.000, 0.000, 0.000, 10:45:21.025, 1583739921025
53, -25250.70, -30210.88, -19218.16, -15508.53, -18460.21, -20499.54, -22984.43, -21290.84, 0.000, 0.000, 0.000, 10:45:21.025, 1583739921025
54, -24689.49, -30154.29, -19099.70, -15409.99, -17841.74, -20461.30, -22730.49, -21016.05, 0.000, 0.000, 0.000, 10:45:21.025, 1583739921025
55, -24814.77, -30189.85, -19093.44, -15364.97, -17840.07, -20442.44, -22817.87, -21027.94, 0.002, -0.020, 0.972, 10:45:21.026, 1583739921026
56, -25317.98, -30246.18, -19201.44, -15477.26, -18428.37, -20497.13, -23052.13, -21272.47, 0.000, 0.000, 0.000, 10:45:21.026, 1583739921026
57, -25587.54, -30264.57, -19287.39, -15581.96, -18817.40, -20542.79, -23162.75, -21444.31, 0.000, 0.000, 0.000, 10:45:21.026, 1583739921026
58, -25263.48, -30216.32, -19219.79, -15507.13, -18463.93, -20502.52, -22987.12, -21295.54, 0.000, 0.000, 0.000, 10:45:21.026, 1583739921026
59, -24688.44, -30154.45, -19086.80, -15391.66, -17830.48, -20449.32, -22718.47, -21005.56, 0.000, 0.000, 0.000, 10:45:21.026, 1583739921026
60, -24813.95, -30195.91, -19085.80, -15361.44, -17833.76, -20439.31, -22808.84, -21022.24, 0.000, 0.000, 0.000, 10:45:21.026, 1583739921026
61, -25316.28, -30243.88, -19193.80, -15483.70, -18424.36, -20500.71, -23043.53, -21271.42, 0.000, 0.000, 0.000, 10:45:21.027, 1583739921027
62, -25577.19, -30251.99, -19272.14, -15572.44, -18805.35, -20533.63, -23147.51, -21432.62, 0.000, 0.000, 0.000, 10:45:21.027, 1583739921027
63, -25258.72, -30212.61, -19207.90, -15501.58, -18456.53, -20494.63, -22976.45, -21288.56, 0.000, 0.000, 0.000, 10:45:21.027, 1583739921027
64, -24690.16, -30156.95, -19078.29, -15389.58, -17828.22, -20445.56, -22713.44, -21004.74, 0.000, 0.000, 0.000, 10:45:21.027, 1583739921027
65, -24801.61, -30185.56, -19068.65, -15348.18, -17816.66, -20426.16, -22792.27, -21011.29, 0.004, -0.020, 0.970, 10:45:21.027, 1583739921027
66, -25303.18, -30235.00, -19180.79, -15466.51, -18406.91, -20485.35, -23027.79, -21256.84, 0.000, 0.000, 0.000, 10:45:21.027, 1583739921027
67, -25567.09, -30249.26, -19264.25, -15560.61, -18793.99, -20521.67, -23134.93, -21420.35, 0.000, 0.000, 0.000, 10:45:21.027, 1583739921027
68, -25253.98, -30209.32, -19204.75, -15495.84, -18451.92, -20486.76, -22969.37, -21281.56, 0.000, 0.000, 0.000, 10:45:21.027, 1583739921027
69, -24685.09, -30147.79, -19079.36, -15387.25, -17825.49, -20440.54, -22707.72, -20999.20, 0.000, 0.000, 0.000, 10:45:21.027, 1583739921027
70, -24799.42, -30184.06, -19077.77, -15364.07, -17818.70, -20434.17, -22794.58, -21014.53, 0.000, 0.000, 0.000, 10:45:21.027, 1583739921027
71, -25301.86, -30238.96, -19194.38, -15486.56, -18409.59, -20497.09, -23034.21, -21264.44, 0.000, 0.000, 0.000, 10:45:21.028, 1583739921028
72, -25569.57, -30255.03, -19271.83, -15565.51, -18797.91, -20525.18, -23141.52, -21425.24, 0.000, 0.000, 0.000, 10:45:21.028, 1583739921028
73, -25252.91, -30207.13, -19197.24, -15476.77, -18446.60, -20474.22, -22966.48, -21272.58, 0.000, 0.000, 0.000, 10:45:21.028, 1583739921028
74, -24686.56, -30144.63, -19083.45, -15383.54, -17832.36, -20439.26, -22712.86, -20999.17, 0.000, 0.000, 0.000, 10:45:21.028, 1583739921028
75, -24796.67, -30177.74, -19084.75, -15361.06, -17825.22, -20435.55, -22799.34, -21014.97, 0.000, -0.020, 0.968, 10:45:21.028, 1583739921028
76, -25299.42, -30236.59, -19202.38, -15485.22, -18415.40, -20501.71, -23044.00, -21267.66, 0.000, 0.000, 0.000, 10:45:21.028, 1583739921028
77, -25564.87, -30249.35, -19277.15, -15567.92, -18803.34, -20530.46, -23147.76, -21425.55, 0.000, 0.000, 0.000, 10:45:21.029, 1583739921029
78, -25254.99, -30205.23, -19210.56, -15489.51, -18463.01, -20487.21, -22978.40, -21280.58, 0.000, 0.000, 0.000, 10:45:21.029, 1583739921029
79, -24687.52, -30148.08, -19090.18, -15392.55, -17838.79, -20450.04, -22717.40, -21005.50, 0.000, 0.000, 0.000, 10:45:21.029, 1583739921029
80, -24790.83, -30173.20, -19079.34, -15351.85, -17817.33, -20437.18, -22791.20, -21007.96, 0.000, 0.000, 0.000, 10:45:21.030, 1583739921030
81, -25294.51, -30231.05, -19194.65, -15474.69, -18408.92, -20508.93, -23034.34, -21258.65, 0.000, 0.000, 0.000, 10:45:21.030, 1583739921030
82, -25566.60, -30251.61, -19276.79, -15570.09, -18808.19, -20552.25, -23146.95, -21428.06, 0.000, 0.000, 0.000, 10:45:21.030, 1583739921030
83, -25257.04, -30201.16, -19210.70, -15495.08, -18467.88, -20510.83, -22977.84, -21284.31, 0.000, 0.000, 0.000, 10:45:21.030, 1583739921030
84, -24688.82, -30141.30, -19091.36, -15396.08, -17844.11, -20472.10, -22719.36, -21007.31, 0.000, 0.000, 0.000, 10:45:21.030, 1583739921030
85, -24791.01, -30173.40, -19083.45, -15360.61, -17823.24, -20457.70, -22794.80, -21012.07, 0.000, -0.016, 0.974, 10:45:21.030, 1583739921030
86, -25292.76, -30226.69, -19194.45, -15477.40, -18407.60, -20516.82, -23034.30, -21258.21, 0.000, 0.000, 0.000, 10:45:21.030, 1583739921030
87, -25563.04, -30243.38, -19274.89, -15571.88, -18803.72, -20552.41, -23144.65, -21424.73, 0.000, 0.000, 0.000, 10:45:21.031, 1583739921031
88, -25261.29, -30203.71, -19210.81, -15493.92, -18467.99, -20509.11, -22977.57, -21283.42, 0.000, 0.000, 0.000, 10:45:21.031, 1583739921031
89, -24689.80, -30145.82, -19090.71, -15394.18, -17844.11, -20468.92, -22716.32, -21004.29, 0.000, 0.000, 0.000, 10:45:21.031, 1583739921031
90, -24783.59, -30172.42, -19076.52, -15351.65, -17816.66, -20450.84, -22788.59, -21004.72, 0.000, 0.000, 0.000, 10:45:21.031, 1583739921031
91, -25284.63, -30223.07, -19183.52, -15462.62, -18397.77, -20506.72, -23028.24, -21248.89, 0.000, 0.000, 0.000, 10:45:21.031, 1583739921031
92, -25560.63, -30241.11, -19269.15, -15560.17, -18802.11, -20544.25, -23142.01, -21418.78, 0.000, 0.000, 0.000, 10:45:21.031, 1583739921031
93, -25267.66, -30205.72, -19214.50, -15496.04, -18475.68, -20511.44, -22982.76, -21288.96, 0.000, 0.000, 0.000, 10:45:21.031, 1583739921031
94, -24690.90, -30134.67, -19088.81, -15393.49, -17842.44, -20469.28, -22716.10, -21005.41, 0.000, 0.000, 0.000, 10:45:21.032, 1583739921032
95, -24784.60, -30166.20, -19082.29, -15357.84, -17814.25, -20456.03, -22789.57, -21006.41, 0.000, 0.000, 0.000, 10:45:21.032, 1583739921032
96, -25286.97, -30228.79, -19192.55, -15470.49, -18398.95, -20513.80, -23028.91, -21251.28, 0.000, -0.018, 0.968, 10:45:21.032, 1583739921032
97, -25563.06, -30244.39, -19275.85, -15571.36, -18804.50, -20555.02, -23143.20, -21423.34, 0.000, 0.000, 0.000, 10:45:21.032, 1583739921032
98, -25265.79, -30205.14, -19217.87, -15504.04, -18481.03, -20517.36, -22983.52, -21289.12, 0.000, 0.000, 0.000, 10:45:21.032, 1583739921032
99, -24691.77, -30143.74, -19094.00, -15397.89, -17850.37, -20473.91, -22719.94, -21007.26, 0.000, 0.000, 0.000, 10:45:21.032, 1583739921032
100, -24778.07, -30172.55, -19079.47, -15358.51, -17814.36, -20458.21, -22788.23, -21006.06, 0.000, 0.000, 0.000, 10:45:21.032, 1583739921032
101, -25281.95, -30229.93, -19192.03, -15476.10, -18400.42, -20517.22, -23030.37, -21252.69, 0.000, 0.000, 0.000, 10:45:21.032, 1583739921032
102, -25564.25, -30245.02, -19281.91, -15574.52, -18808.97, -20557.84, -23149.34, -21425.64, 0.000, 0.000, 0.000, 10:45:21.032, 1583739921032
103, -25269.92, -30200.63, -19220.44, -15505.20, -18486.10, -20519.41, -22989.39, -21290.75, 0.000, 0.000, 0.000, 10:45:21.032, 1583739921032
104, -24688.89, -30134.60, -19091.79, -15401.60, -17854.01, -20474.04, -22721.35, -21005.39, 0.000, 0.000, 0.000, 10:45:21.033, 1583739921033
105, -24780.73, -30169.85, -19089.35, -15376.37, -17825.00, -20470.49, -22800.79, -21013.92, 0.000, 0.000, 0.000, 10:45:21.490, 1583739921490
106, -25280.76, -30225.64, -19197.33, -15486.20, -18403.24, -20526.05, -23039.08, -21257.36, 0.002, -0.014, 0.968, 10:45:21.490, 1583739921490
107, -25558.64, -30241.48, -19275.85, -15567.12, -18805.06, -20553.21, -23148.05, -21419.72, 0.000, 0.000, 0.000, 10:45:21.491, 1583739921491
108, -25265.34, -30196.00, -19214.32, -15490.65, -18482.01, -20509.24, -22983.83, -21281.59, 0.000, 0.000, 0.000, 10:45:21.491, 1583739921491
109, -24683.79, -30128.45, -19091.14, -15393.44, -17852.65, -20469.23, -22716.39, -20999.57, 0.000, 0.000, 0.000, 10:45:21.491, 1583739921491
110, -24773.35, -30159.86, -19080.92, -15357.44, -17812.98, -20455.96, -22789.41, -21000.36, 0.000, 0.000, 0.000, 10:45:21.492, 1583739921492
111, -25275.91, -30218.69, -19188.68, -15472.57, -18390.25, -20513.54, -23026.28, -21245.67, 0.000, 0.000, 0.000, 10:45:21.492, 1583739921492
112, -25563.18, -30244.37, -19279.07, -15578.54, -18806.13, -20558.62, -23145.70, -21422.74, 0.000, 0.000, 0.000, 10:45:21.492, 1583739921492
113, -25282.21, -30210.53, -19223.75, -15513.56, -18490.75, -20523.91, -22992.26, -21296.67, 0.000, 0.000, 0.000, 10:45:21.492, 1583739921492
114, -24702.23, -30150.00, -19098.60, -15402.77, -17858.62, -20477.24, -22726.45, -21011.40, 0.000, 0.000, 0.000, 10:45:21.492, 1583739921492
115, -24779.05, -30171.99, -19078.13, -15351.71, -17810.23, -20454.86, -22790.80, -21002.10, 0.000, 0.000, 0.000, 10:45:21.492, 1583739921492
116, -25280.78, -30228.99, -19186.69, -15454.87, -18384.91, -20505.38, -23029.63, -21240.79, 0.000, -0.014, 0.970, 10:45:21.492, 1583739921492
117, -25567.04, -30246.96, -19273.93, -15554.09, -18799.45, -20544.65, -23147.49, -21414.47, 0.000, 0.000, 0.000, 10:45:21.492, 1583739921492
118, -25283.18, -30202.39, -19218.16, -15495.23, -18485.83, -20511.21, -22990.60, -21288.02, 0.000, 0.000, 0.000, 10:45:21.495, 1583739921495
119, -24705.40, -30141.08, -19091.54, -15397.85, -17852.25, -20471.76, -22721.93, -21006.50, 0.000, 0.000, 0.000, 10:45:21.496, 1583739921496
120, -24779.39, -30167.86, -19076.19, -15356.05, -17805.47, -20456.07, -22787.83, -20999.84, 0.000, 0.000, 0.000, 10:45:21.496, 1583739921496
121, -25278.30, -30223.67, -19189.80, -15469.96, -18384.76, -20514.07, -23027.71, -21244.01, 0.000, 0.000, 0.000, 10:45:21.496, 1583739921496
122, -25571.67, -30250.07, -19278.85, -15569.64, -18800.32, -20554.31, -23146.73, -21420.73, 0.000, 0.000, 0.000, 10:45:21.496, 1583739921496
123, -25294.80, -30212.83, -19222.37, -15504.49, -18489.50, -20516.87, -22990.69, -21292.90, 0.000, 0.000, 0.000, 10:45:21.496, 1583739921496
124, -24711.57, -30143.83, -19100.66, -15408.67, -17857.75, -20478.60, -22719.63, -21011.49, 0.000, 0.000, 0.000, 10:45:21.496, 1583739921496
125, -24777.78, -30173.92, -19086.65, -15365.91, -17804.26, -20463.11, -22783.18, -21004.18, 0.000, 0.000, 0.000, 10:45:21.497, 1583739921497
126, -25275.66, -30231.96, -19192.91, -15473.08, -18378.36, -20518.32, -23021.76, -21245.56, -0.004, -0.014, 0.972, 10:45:21.497, 1583739921497
127, -25560.65, -30241.06, -19282.27, -15578.32, -18801.04, -20561.68, -23141.39, -21422.60, 0.000, 0.000, 0.000, 10:45:21.497, 1583739921497
128, -25286.13, -30199.84, -19224.00, -15506.52, -18496.27, -20523.86, -22989.64, -21296.94, 0.000, 0.000, 0.000, 10:45:21.497, 1583739921497
129, -24701.78, -30135.94, -19092.28, -15386.05, -17854.53, -20471.04, -22714.89, -21005.88, 0.000, 0.000, 0.000, 10:45:21.497, 1583739921497
130, -24771.16, -30165.15, -19079.36, -15353.48, -17798.56, -20461.23, -22777.86, -21000.04, 0.000, 0.000, 0.000, 10:45:21.497, 1583739921497
131, -25277.18, -30222.89, -19196.15, -15470.63, -18381.34, -20521.52, -23023.88, -21246.61, 0.000, 0.000, 0.000, 10:45:21.497, 1583739921497
132, -25564.72, -30235.20, -19281.15, -15563.88, -18802.80, -20554.22, -23142.75, -21416.68, 0.000, 0.000, 0.000, 10:45:21.497, 1583739921497
133, -25288.47, -30195.78, -19223.48, -15503.10, -18499.58, -20519.97, -22992.50, -21294.24, 0.000, 0.000, 0.000, 10:45:21.498, 1583739921498
134, -24707.71, -30140.68, -19098.20, -15400.20, -17864.32, -20478.58, -22725.00, -21010.68, 0.000, 0.000, 0.000, 10:45:21.498, 1583739921498
135, -24771.79, -30165.82, -19076.52, -15348.85, -17800.35, -20456.32, -22782.66, -20994.50, 0.000, 0.000, 0.000, 10:45:21.498, 1583739921498
136, -25275.11, -30222.80, -19189.44, -15466.11, -18376.24, -20516.82, -23026.88, -21240.19, -0.004, -0.014, 0.974, 10:45:21.498, 1583739921498
137, -25563.76, -30240.50, -19282.74, -15573.85, -18803.07, -20560.88, -23148.74, -21419.47, 0.000, 0.000, 0.000, 10:45:21.498, 1583739921498
138, -25297.19, -30204.34, -19235.73, -15519.93, -18509.90, -20531.66, -23003.79, -21304.25, 0.000, 0.000, 0.000, 10:45:21.498, 1583739921498
139, -24710.77, -30134.62, -19104.91, -15408.96, -17871.36, -20483.09, -22729.98, -21016.85, 0.000, 0.000, 0.000, 10:45:21.498, 1583739921498
140, -24767.77, -30164.44, -19077.30, -15363.07, -17800.97, -20461.32, -22782.95, -20998.68, 0.000, 0.000, 0.000, 10:45:21.498, 1583739921498
141, -25267.15, -30217.75, -19191.52, -15481.17, -18374.61, -20520.89, -23025.36, -21243.46, 0.000, 0.000, 0.000, 10:45:21.498, 1583739921498
142, -25558.48, -30227.94, -19284.68, -15569.51, -18801.08, -20554.24, -23146.04, -21416.86, 0.000, 0.000, 0.000, 10:45:21.499, 1583739921499
143, -25287.18, -30198.26, -19222.39, -15496.69, -18501.95, -20510.96, -22991.45, -21289.37, 0.000, 0.000, 0.000, 10:45:21.499, 1583739921499
144, -24699.95, -30144.61, -19094.47, -15402.39, -17863.87, -20472.81, -22719.61, -21007.82, 0.000, 0.000, 0.000, 10:45:21.499, 1583739921499
145, -24755.27, -30169.98, -19071.76, -15360.74, -17792.70, -20455.22, -22774.33, -20990.84, 0.000, 0.000, 0.000, 10:45:21.499, 1583739921499
146, -25264.87, -30231.94, -19186.22, -15465.64, -18369.58, -20510.56, -23020.82, -21233.66, 0.004, -0.014, 0.974, 10:45:21.499, 1583739921499
147, -25558.39, -30244.39, -19276.57, -15567.92, -18799.36, -20550.35, -23140.36, -21411.00, 0.000, 0.000, 0.000, 10:45:21.499, 1583739921499
148, -25290.86, -30201.27, -19222.23, -15507.10, -18506.60, -20516.58, -22991.34, -21292.32, 0.000, 0.000, 0.000, 10:45:21.499, 1583739921499
149, -24702.90, -30140.52, -19095.14, -15404.73, -17866.51, -20475.02, -22718.36, -21008.83, 0.000, 0.000, 0.000, 10:45:21.499, 1583739921499
150, -24759.65, -30168.28, -19080.83, -15362.84, -17797.62, -20462.04, -22777.57, -20994.97, 0.000, 0.000, 0.000, 10:45:21.500, 1583739921500
151, -25259.95, -30221.99, -19191.01, -15466.27, -18367.37, -20513.51, -23018.29, -21233.46, 0.000, 0.000, 0.000, 10:45:21.500, 1583739921500
152, -25555.44, -30240.28, -19277.80, -15566.29, -18797.46, -20552.21, -23138.37, -21411.45, 0.000, 0.000, 0.000, 10:45:21.500, 1583739921500
153, -25295.87, -30210.39, -19226.97, -15511.51, -18513.08, -20523.64, -22997.73, -21299.83, 0.000, 0.000, 0.000, 10:45:21.500, 1583739921500
154, -24703.86, -30139.07, -19100.93, -15411.13, -17877.53, -20482.06, -22724.04, -21014.30, 0.000, 0.000, 0.000, 10:45:21.500, 1583739921500
155, -24754.22, -30158.34, -19084.16, -15365.84, -17801.31, -20467.49, -22777.70, -20997.54, 0.000, 0.000, 0.000, 10:45:21.500, 1583739921500
156, -25252.24, -30216.27, -19187.56, -15465.78, -18364.06, -20515.37, -23014.63, -21231.61, 0.004, -0.014, 0.970, 10:45:21.500, 1583739921500
157, -25549.36, -30235.23, -19277.39, -15566.80, -18797.21, -20555.40, -23138.46, -21410.18, 0.000, 0.000, 0.000, 10:45:21.500, 1583739921500
158, -25293.77, -30204.18, -19225.67, -15506.79, -18512.74, -20523.06, -22997.26, -21295.98, 0.000, 0.000, 0.000, 10:45:21.500, 1583739921500
159, -24702.63, -30141.66, -19098.04, -15409.83, -17872.66, -20482.51, -22725.04, -21010.84, 0.000, 0.000, 0.000, 10:45:21.501, 1583739921501
160, -24748.74, -30168.91, -19081.21, -15370.76, -17794.69, -20469.59, -22778.91, -20993.70, 0.000, 0.000, 0.000, 10:45:21.501, 1583739921501
161, -25253.80, -30229.88, -19190.74, -15474.25, -18364.53, -20521.74, -23022.12, -21235.12, 0.000, 0.000, 0.000, 10:45:21.501, 1583739921501
162, -25554.68, -30245.13, -19284.39, -15575.68, -18802.49, -20561.41, -23148.03, -21416.97, 0.000, 0.000, 0.000, 10:45:21.501, 1583739921501
163, -25293.55, -30200.20, -19229.70, -15507.57, -18515.18, -20520.73, -22998.98, -21298.55, 0.000, 0.000, 0.000, 10:45:21.501, 1583739921501
164, -24705.11, -30137.88, -19099.99, -15407.77, -17874.51, -20480.32, -22723.81, -21014.46, 0.000, 0.000, 0.000, 10:45:21.501, 1583739921501
165, -24752.28, -30172.93, -19080.88, -15367.16, -17795.52, -20467.92, -22779.76, -20996.71, 0.000, 0.000, 0.000, 10:45:21.501, 1583739921501
166, -25250.47, -30230.04, -19189.55, -15467.61, -18362.16, -20518.16, -23021.49, -21234.78, 0.004, -0.016, 0.962, 10:45:21.502, 1583739921502
167, -25553.43, -30248.23, -19289.80, -15581.15, -18804.99, -20566.76, -23151.33, -21422.74, 0.000, 0.000, 0.000, 10:45:21.502, 1583739921502
168, -25302.55, -30213.08, -19246.35, -15530.44, -18533.75, -20538.06, -23015.37, -21315.92, 0.000, 0.000, 0.000, 10:45:21.502, 1583739921502
169, -24709.00, -30145.06, -19114.09, -15415.55, -17890.98, -20486.87, -22736.98, -21023.92, 0.000, 0.000, 0.000, 10:45:21.502, 1583739921502
170, -24749.93, -30169.40, -19089.82, -15365.19, -17802.02, -20466.66, -22784.50, -20997.70, 0.000, 0.000, 0.000, 10:45:21.502, 1583739921502
171, -25251.75, -30217.41, -19184.90, -15459.72, -18356.37, -20511.77, -23017.71, -21229.53, 0.000, 0.000, 0.000, 10:45:21.502, 1583739921502
172, -25557.90, -30238.42, -19273.21, -15559.92, -18794.93, -20551.02, -23142.26, -21408.50, 0.000, 0.000, 0.000, 10:45:21.503, 1583739921503
173, -25305.55, -30209.88, -19223.75, -15508.78, -18519.25, -20520.78, -23003.88, -21299.92, 0.000, 0.000, 0.000, 10:45:21.503, 1583739921503
174, -24714.95, -30147.21, -19098.04, -15408.38, -17878.82, -20479.92, -22733.11, -21016.23, 0.000, 0.000, 0.000, 10:45:21.503, 1583739921503
175, -24748.61, -30172.87, -19077.84, -15352.97, -17790.36, -20459.04, -22782.89, -20990.28, 0.000, 0.000, 0.000, 10:45:21.503, 1583739921503
176, -25247.32, -30228.56, -19186.38, -15458.44, -18353.58, -20511.77, -23023.35, -21228.99, -0.006, -0.016, 0.966, 10:45:21.503, 1583739921503
177, -25553.21, -30243.18, -19281.42, -15569.24, -18799.76, -20556.25, -23151.24, -21413.73, 0.000, 0.000, 0.000, 10:45:21.503, 1583739921503
178, -25303.47, -30208.47, -19232.94, -15513.70, -18527.61, -20523.93, -23010.45, -21304.54, 0.000, 0.000, 0.000, 10:45:21.503, 1583739921503
179, -24715.55, -30147.90, -19106.45, -15417.88, -17887.79, -20488.55, -22738.61, -21026.53, 0.000, 0.000, 0.000, 10:45:21.504, 1583739921504
180, -24752.41, -30169.40, -19085.35, -15371.88, -17796.77, -20472.23, -22785.99, -21002.59, 0.000, 0.000, 0.000, 10:45:21.504, 1583739921504
181, -25260.20, -30235.23, -19195.34, -15472.75, -18360.33, -20524.78, -23030.43, -21241.22, 0.000, 0.000, 0.000, 10:45:21.504, 1583739921504
182, -25564.31, -30249.87, -19286.98, -15577.31, -18805.48, -20567.65, -23157.48, -21425.24, 0.000, 0.000, 0.000, 10:45:21.504, 1583739921504
183, -25310.78, -30210.44, -19233.00, -15515.62, -18531.18, -20528.38, -23012.89, -21311.83, 0.000, 0.000, 0.000, 10:45:21.504, 1583739921504
184, -24722.66, -30147.99, -19109.22, -15412.42, -17890.09, -20486.78, -22739.35, -21027.78, 0.000, 0.000, 0.000, 10:45:21.504, 1583739921504
185, -24747.16, -30165.22, -19084.68, -15362.22, -17791.94, -20466.44, -22779.82, -20998.17, 0.000, 0.000, 0.000, 10:45:21.504, 1583739921504
186, -25247.99, -30225.73, -19194.65, -15468.77, -18354.36, -20523.24, -23022.68, -21238.83, 0.000, 0.000, 0.000, 10:45:21.504, 1583739921504
187, -25559.87, -30244.79, -19291.75, -15583.01, -18806.89, -20572.48, -23156.50, -21429.20, 0.000, -0.018, 0.964, 10:45:21.505, 1583739921505
188, -25314.60, -30206.64, -19239.53, -15525.34, -18538.94, -20536.60, -23015.17, -21319.14, 0.000, 0.000, 0.000, 10:45:21.505, 1583739921505
189, -24727.38, -30152.01, -19117.69, -15425.47, -17902.12, -20496.88, -22742.74, -21034.64, 0.000, 0.000, 0.000, 10:45:21.505, 1583739921505
190, -24748.72, -30174.27, -19082.42, -15363.23, -17789.02, -20466.17, -22775.24, -20994.52, 0.000, 0.000, 0.000, 10:45:21.505, 1583739921505
191, -25251.19, -30230.26, -19175.27, -15456.61, -18338.85, -20512.02, -23013.15, -21227.38, 0.000, 0.000, 0.000, 10:45:21.505, 1583739921505
192, -25557.97, -30243.74, -19268.81, -15570.43, -18788.14, -20559.34, -23144.76, -21414.78, 0.000, 0.000, 0.000, 10:45:21.505, 1583739921505
193, -25321.82, -30213.84, -19229.63, -15520.51, -18534.24, -20530.63, -23013.98, -21313.95, 0.000, 0.000, 0.000, 10:45:21.505, 1583739921505
194, -24730.66, -30149.13, -19110.94, -15422.75, -17901.89, -20492.15, -22742.99, -21032.25, 0.000, 0.000, 0.000, 10:45:21.505, 1583739921505
195, -24745.84, -30165.15, -19086.22, -15371.63, -17797.42, -20473.35, -22782.19, -21000.45, 0.000, 0.000, 0.000, 10:45:21.505, 1583739921505
196, -25248.37, -30224.05, -19191.45, -15474.38, -18351.77, -20526.10, -23024.44, -21239.43, 0.000, 0.000, 0.000, 10:45:21.506, 1583739921506
197, -25561.86, -30242.85, -19278.83, -15575.46, -18794.66, -20561.41, -23146.13, -21419.50, 0.004, -0.026, 0.970, 10:45:21.506, 1583739921506
198, -25330.74, -30211.73, -19232.47, -15517.85, -18535.74, -20527.35, -23011.21, -21316.57, 0.000, 0.000, 0.000, 10:45:21.506, 1583739921506
199, -24737.32, -30143.81, -19105.69, -15420.89, -17894.34, -20489.31, -22734.54, -21032.57, 0.000, 0.000, 0.000, 10:45:21.506, 1583739921506
200, -24755.54, -30173.00, -19083.94, -15384.91, -17787.90, -20478.27, -22774.66, -21003.33, 0.000, 0.000, 0.000, 10:45:21.506, 1583739921506
201, -25251.12, -30223.96, -19185.42, -15469.78, -18337.13, -20519.30, -23013.51, -21229.87, 0.000, 0.000, 0.000, 10:45:21.506, 1583739921506
202, -25555.69, -30239.41, -19268.12, -15554.38, -18782.53, -20547.02, -23137.27, -21405.08, 0.000, 0.000, 0.000, 10:45:21.506, 1583739921506
203, -25322.60, -30210.93, -19223.48, -15499.46, -18533.57, -20515.84, -23007.92, -21306.38, 0.000, 0.000, 0.000, 10:45:21.506, 1583739921506
204, -24728.43, -30144.84, -19101.91, -15402.63, -17895.23, -20478.87, -22733.94, -21025.50, 0.000, 0.000, 0.000, 10:45:21.507, 1583739921507
205, -24742.84, -30167.14, -19073.19, -15358.22, -17780.66, -20460.81, -22769.88, -20989.40, 0.000, 0.000, 0.000, 10:45:21.507, 1583739921507
206, -25245.11, -30230.33, -19178.11, -15463.52, -18332.47, -20514.18, -23011.23, -21226.78, 0.000, 0.000, 0.000, 10:45:21.507, 1583739921507
207, -25555.35, -30251.21, -19274.82, -15575.63, -18788.52, -20559.29, -23141.43, -21415.68, 0.002, -0.026, 0.968, 10:45:21.507, 1583739921507
208, -25324.28, -30213.01, -19232.02, -15526.93, -18539.61, -20528.02, -23009.02, -21316.03, 0.000, 0.000, 0.000, 10:45:21.507, 1583739921507
209, -24730.10, -30149.64, -19110.58, -15428.49, -17896.86, -20488.30, -22734.38, -21031.22, 0.000, 0.000, 0.000, 10:45:21.507, 1583739921507
210, -24738.48, -30168.60, -19080.63, -15366.91, -17775.83, -20462.22, -22764.92, -20988.91, 0.000, 0.000, 0.000, 10:45:21.507, 1583739921507
211, -25231.88, -30219.42, -19178.38, -15461.53, -18322.55, -20507.43, -23001.42, -21218.80, 0.000, 0.000, 0.000, 10:45:21.507, 1583739921507
212, -25546.28, -30236.81, -19264.14, -15564.84, -18775.26, -20547.20, -23130.99, -21405.68, 0.000, 0.000, 0.000, 10:45:21.508, 1583739921508
213, -25322.00, -30203.67, -19224.24, -15507.01, -18531.38, -20514.38, -23004.28, -21307.02, 0.000, 0.000, 0.000, 10:45:21.508, 1583739921508
214, -24731.40, -30143.56, -19103.30, -15412.71, -17892.73, -20477.86, -22729.35, -21024.70, 0.000, 0.000, 0.000, 10:45:21.508, 1583739921508
215, -24736.83, -30165.27, -19074.02, -15360.77, -17774.04, -20458.15, -22763.33, -20985.65, 0.000, 0.000, 0.000, 10:45:21.508, 1583739921508
216, -25235.25, -30225.82, -19177.44, -15455.47, -18322.08, -20506.41, -23003.86, -21219.05, 0.000, 0.000, 0.000, 10:45:21.508, 1583739921508
217, -25554.55, -30243.38, -19278.96, -15576.75, -18788.56, -20559.49, -23142.37, -21414.65, 0.002, -0.020, 0.968, 10:45:21.508, 1583739921508
218, -25337.87, -30213.70, -19248.12, -15539.25, -18557.74, -20540.58, -23025.85, -21328.17, 0.000, 0.000, 0.000, 10:45:21.508, 1583739921508
219, -24746.67, -30159.79, -19121.56, -15433.75, -17916.80, -20497.58, -22750.10, -21040.90, 0.000, 0.000, 0.000, 10:45:21.508, 1583739921508
220, -24742.62, -30177.34, -19081.84, -15362.29, -17786.49, -20465.23, -22773.48, -20990.21, 0.000, 0.000, 0.000, 10:45:21.509, 1583739921509
221, -25242.20, -30230.64, -19188.21, -15461.71, -18337.06, -20518.36, -23017.09, -21226.24, 0.000, 0.000, 0.000, 10:45:21.509, 1583739921509
222, -25563.55, -30252.91, -19287.70, -15584.33, -18805.57, -20570.58, -23155.42, -21423.19, 0.000, 0.000, 0.000, 10:45:21.509, 1583739921509
223, -25341.74, -30215.69, -19240.00, -15527.73, -18563.91, -20536.00, -23026.41, -21327.27, 0.000, 0.000, 0.000, 10:45:21.509, 1583739921509
224, -24746.42, -30151.00, -19116.46, -15424.94, -17923.91, -20495.32, -22751.15, -21043.79, 0.000, 0.000, 0.000, 10:45:21.509, 1583739921509
225, -24739.60, -30170.21, -19080.83, -15367.63, -17787.76, -20471.98, -22775.06, -20998.48, 0.000, 0.000, 0.000, 10:45:21.973, 1583739921973
226, -25235.54, -30226.06, -19181.39, -15463.67, -18330.53, -20520.17, -23013.51, -21231.23, 0.000, 0.000, 0.000, 10:45:21.974, 1583739921974
227, -25559.02, -30253.89, -19282.74, -15581.60, -18798.91, -20569.62, -23153.03, -21426.96, 0.002, -0.020, 0.968, 10:45:21.974, 1583739921974
228, -25341.89, -30220.72, -19239.80, -15529.81, -18560.37, -20537.10, -23025.54, -21331.30, 0.000, 0.000, 0.000, 10:45:21.974, 1583739921974
229, -24745.30, -30148.46, -19110.38, -15424.20, -17912.15, -20490.49, -22742.14, -21038.27, 0.000, 0.000, 0.000, 10:45:21.974, 1583739921974
230, -24739.11, -30162.92, -19081.06, -15374.56, -17780.99, -20470.11, -22769.14, -20992.51, 0.000, 0.000, 0.000, 10:45:21.974, 1583739921974
231, -25237.82, -30222.17, -19186.16, -15469.24, -18325.93, -20515.79, -23011.03, -21223.34, 0.000, 0.000, 0.000, 10:45:21.975, 1583739921975
232, -25559.91, -30246.54, -19285.53, -15578.23, -18793.68, -20559.76, -23148.74, -21414.76, 0.000, 0.000, 0.000, 10:45:21.975, 1583739921975
233, -25351.21, -30218.33, -19248.83, -15538.84, -18567.08, -20536.51, -23030.16, -21328.46, 0.000, 0.000, 0.000, 10:45:21.975, 1583739921975
234, -24752.68, -30150.76, -19123.30, -15441.10, -17926.46, -20498.16, -22753.18, -21044.52, 0.000, 0.000, 0.000, 10:45:21.975, 1583739921975
235, -24736.50, -30168.24, -19086.29, -15377.35, -17785.26, -20468.77, -22770.73, -20990.39, 0.000, 0.000, 0.000, 10:45:21.975, 1583739921975
236, -25231.81, -30224.14, -19178.62, -15456.99, -18318.91, -20504.86, -23003.92, -21211.98, 0.000, 0.000, 0.000, 10:45:21.975, 1583739921975
237, -25558.82, -30248.99, -19279.12, -15573.29, -18790.82, -20555.13, -23145.05, -21409.10, 0.006, -0.022, 0.966, 10:45:21.980, 1583739921980
238, -25353.94, -30224.88, -19250.91, -15540.43, -18575.21, -20537.92, -23033.45, -21330.65, 0.000, 0.000, 0.000, 10:45:21.980, 1583739921980
239, -24758.54, -30160.24, -19128.64, -15435.51, -17936.54, -20498.63, -22757.49, -21048.73, 0.000, 0.000, 0.000, 10:45:21.980, 1583739921980
240, -24735.98, -30170.25, -19089.33, -15366.18, -17789.22, -20467.04, -22771.82, -20990.61, 0.000, 0.000, 0.000, 10:45:21.980, 1583739921980
241, -25235.63, -30228.30, -19188.95, -15464.77, -18332.30, -20518.19, -23013.73, -21223.34, 0.000, 0.000, 0.000, 10:45:21.980, 1583739921980
242, -25566.30, -30257.98, -19287.01, -15588.60, -18806.71, -20574.18, -23155.02, -21426.58, 0.000, 0.000, 0.000, 10:45:21.980, 1583739921980
243, -25357.54, -30225.06, -19245.68, -15530.77, -18579.55, -20538.93, -23032.42, -21335.28, 0.000, 0.000, 0.000, 10:45:21.980, 1583739921980
244, -24760.90, -30156.48, -19118.79, -15420.60, -17929.92, -20492.28, -22750.14, -21044.19, 0.000, 0.000, 0.000, 10:45:21.981, 1583739921981
245, -24746.29, -30179.84, -19087.74, -15372.68, -17786.40, -20474.13, -22772.45, -20996.47, 0.000, 0.000, 0.000, 10:45:21.981, 1583739921981
246, -25240.04, -30240.66, -19185.98, -15469.55, -18322.44, -20521.81, -23011.28, -21225.95, 0.000, 0.000, 0.000, 10:45:21.981, 1583739921981
247, -25561.92, -30257.69, -19281.20, -15578.03, -18792.36, -20566.17, -23147.73, -21418.71, 0.010, -0.024, 0.964, 10:45:21.981, 1583739921981
248, -25361.50, -30220.65, -19243.33, -15519.73, -18570.37, -20533.96, -23031.86, -21331.03, 0.000, 0.000, 0.000, 10:45:21.981, 1583739921981
249, -24764.08, -30156.44, -19119.23, -15423.17, -17928.47, -20494.85, -22752.24, -21046.58, 0.000, 0.000, 0.000, 10:45:21.981, 1583739921981
250, -24736.76, -30179.57, -19084.79, -15372.52, -17784.52, -20475.07, -22770.82, -20996.49, 0.000, 0.000, 0.000, 10:45:21.981, 1583739921981
251, -25232.44, -30236.97, -19187.09, -15466.94, -18323.94, -20523.86, -23013.73, -21226.49, 0.000, 0.000, 0.000, 10:45:21.981, 1583739921981
252, -25561.43, -30253.11, -19286.13, -15587.70, -18801.15, -20573.46, -23156.38, -21425.02, 0.000, 0.000, 0.000, 10:45:21.982, 1583739921982
253, -25362.34, -30223.83, -19241.77, -15530.57, -18577.54, -20537.41, -23035.06, -21336.86, 0.000, 0.000, 0.000, 10:45:21.982, 1583739921982
254, -24761.69, -30158.80, -19115.01, -15425.07, -17929.03, -20493.29, -22748.40, -21046.94, 0.000, 0.000, 0.000, 10:45:21.982, 1583739921982
255, -24734.24, -30177.07, -19087.96, -15378.94, -17781.24, -20476.41, -22767.46, -20998.14, 0.000, 0.000, 0.000, 10:45:21.982, 1583739921982
0, -25230.96, -30235.36, -19194.43, -15479.63, -18322.06, -20528.80, -23013.51, -21232.08, 0.000, 0.000, 0.000, 10:45:21.982, 1583739921982
1, -25559.29, -30252.53, -19288.97, -15593.76, -18798.62, -20575.32, -23152.52, -21426.96, 0.006, -0.020, 0.964, 10:45:21.982, 1583739921982
2, -25359.10, -30221.05, -19251.04, -15536.05, -18582.59, -20540.72, -23035.01, -21337.89, 0.000, 0.000, 0.000, 10:45:21.982, 1583739921982
3, -24755.54, -30143.72, -19119.73, -15423.78, -17932.45, -20489.60, -22748.02, -21042.76, 0.000, 0.000, 0.000, 10:45:21.982, 1583739921982
4, -24723.73, -30160.26, -19078.64, -15366.85, -17774.67, -20464.18, -22758.61, -20984.00, 0.000, 0.000, 0.000, 10:45:21.983, 1583739921983
5, -25220.61, -30227.40, -19177.91, -15456.79, -18306.35, -20509.38, -22997.82, -21211.40, 0.000, 0.000, 0.000, 10:45:21.983, 1583739921983
6, -25551.87, -30245.84, -19272.72, -15568.66, -18781.41, -20555.00, -23134.61, -21407.29, 0.000, 0.000, 0.000, 10:45:21.983, 1583739921983
7, -25356.27, -30216.03, -19235.13, -15520.89, -18571.04, -20527.08, -23021.40, -21326.56, 0.000, 0.000, 0.000, 10:45:21.983, 1583739921983
8, -24758.15, -30154.83, -19116.33, -15430.97, -17929.99, -20494.09, -22744.40, -21046.02, 0.000, 0.000, 0.000, 10:45:21.983, 1583739921983
9, -24736.50, -30183.28, -19093.17, -15393.38, -17782.96, -20486.40, -22768.36, -21002.39, 0.000, 0.000, 0.000, 10:45:21.983, 1583739921983
10, -25228.66, -30233.91, -19185.62, -15467.21, -18308.04, -20519.62, -23003.70, -21220.95, 0.000, 0.000, 0.000, 10:45:21.983, 1583739921983
11, -25562.15, -30255.81, -19283.01, -15578.18, -18788.25, -20563.63, -23144.09, -21416.75, 0.008, -0.018, 0.970, 10:45:21.983, 1583739921983
12, -25375.29, -30231.94, -19253.19, -15544.90, -18587.64, -20542.91, -23034.50, -21343.88, 0.000, 0.000, 0.000, 10:45:21.983, 1583739921983
13, -24774.36, -30164.15, -19126.92, -15436.58, -17940.47, -20498.16, -22753.45, -21054.27, 0.000, 0.000, 0.000, 10:45:21.984, 1583739921984
14, -24729.21, -30171.95, -19080.83, -15364.70, -17771.40, -20465.41, -22759.08, -20986.74, 0.000, 0.000, 0.000, 10:45:21.984, 1583739921984
15, -25224.03, -30234.20, -19178.76, -15447.09, -18300.91, -20507.84, -22998.80, -21209.95, 0.000, 0.000, 0.000, 10:45:21.984, 1583739921984
16, -25558.57, -30256.13, -19278.65, -15568.01, -18783.91, -20559.11, -23139.29, -21409.97, 0.000, 0.000, 0.000, 10:45:21.984, 1583739921984
17, -25373.86, -30228.30, -19247.69, -15532.47, -18584.11, -20536.92, -23033.34, -21336.91, 0.000, 0.000, 0.000, 10:45:21.984, 1583739921984
18, -24774.14, -30160.10, -19129.49, -15435.64, -17945.57, -20498.58, -22756.11, -21052.59, 0.000, 0.000, 0.000, 10:45:21.984, 1583739921984
19, -24730.19, -30167.86, -19094.22, -15376.46, -17782.38, -20474.73, -22765.97, -20991.28, 0.000, 0.000, 0.000, 10:45:21.984, 1583739921984
20, -25221.35, -30219.36, -19190.80, -15465.80, -18312.56, -20520.29, -23007.99, -21217.30, 0.000, 0.000, 0.000, 10:45:21.984, 1583739921984
21, -25557.95, -30252.28, -19283.65, -15578.20, -18795.89, -20565.97, -23148.16, -21414.89, 0.000, 0.000, 0.000, 10:45:21.985, 1583739921985
22, -25377.03, -30231.00, -19245.05, -15526.39, -18591.46, -20532.89, -23033.05, -21333.82, -0.002, -0.016, 0.966, 10:45:21.985, 1583739921985
23, -24772.73, -30159.97, -19117.20, -15427.78, -17942.79, -20489.75, -22749.02, -21044.97, 0.000, 0.000, 0.000, 10:45:21.985, 1583739921985
24, -24729.01, -30174.94, -19087.41, -15389.89, -17781.77, -20478.85, -22764.94, -20993.41, 0.000, 0.000, 0.000, 10:45:21.985, 1583739921985
25, -25225.71, -30235.92, -19189.40, -15480.68, -18311.04, -20526.72, -23006.78, -21221.62, 0.000, 0.000, 0.000, 10:45:21.985, 1583739921985
26, -25563.24, -30260.51, -19285.84, -15580.04, -18790.80, -20565.77, -23145.63, -21415.96, 0.000, 0.000, 0.000, 10:45:21.986, 1583739921986
27, -25375.24, -30223.36, -19248.72, -15525.99, -18588.11, -20528.13, -23029.56, -21331.77, 0.000, 0.000, 0.000, 10:45:21.986, 1583739921986
28, -24771.39, -30155.38, -19120.82, -15423.02, -17940.56, -20483.34, -22744.82, -21040.52, 0.000, 0.000, 0.000, 10:45:21.986, 1583739921986
29, -24719.29, -30165.42, -19078.15, -15375.45, -17764.58, -20465.01, -22748.40, -20979.10, 0.000, 0.000, 0.000, 10:45:21.986, 1583739921986
30, -25214.62, -30222.64, -19179.83, -15474.29, -18292.89, -20517.04, -22991.92, -21210.60, 0.000, 0.000, 0.000, 10:45:21.987, 1583739921987
31, -25556.22, -30249.11, -19283.95, -15582.43, -18783.76, -20563.02, -23138.57, -21411.45, 0.000, 0.000, 0.000, 10:45:21.987, 1583739921987
32, -25371.17, -30214.39, -19238.08, -15513.21, -18575.51, -20516.33, -23020.71, -21322.92, 0.000, -0.028, 0.962, 10:45:21.987, 1583739921987
33, -24769.80, -30142.60, -19111.32, -15416.42, -17930.10, -20476.46, -22738.38, -21036.43, 0.000, 0.000, 0.000, 10:45:21.987, 1583739921987
34, -24716.49, -30160.59, -19077.01, -15365.77, -17757.54, -20457.99, -22746.56, -20974.27, 0.000, 0.000, 0.000, 10:45:21.987, 1583739921987
35, -25207.56, -30220.99, -19178.47, -15452.86, -18284.20, -20503.79, -22989.42, -21199.09, 0.000, 0.000, 0.000, 10:45:21.988, 1583739921988
36, -25549.59, -30240.32, -19277.60, -15570.54, -18774.15, -20553.48, -23133.09, -21400.10, 0.000, 0.000, 0.000, 10:45:21.988, 1583739921988
37, -25377.99, -30212.67, -19245.95, -15529.12, -18587.20, -20527.15, -23028.04, -21329.64, 0.000, 0.000, 0.000, 10:45:21.988, 1583739921988
38, -24782.21, -30152.99, -19125.54, -15434.30, -17950.69, -20492.12, -22751.73, -21049.75, 0.000, 0.000, 0.000, 10:45:21.988, 1583739921988
39, -24719.13, -30161.11, -19086.29, -15379.50, -17769.88, -20468.47, -22753.40, -20981.40, 0.000, 0.000, 0.000, 10:45:21.988, 1583739921988
40, -25209.01, -30224.01, -19181.42, -15459.70, -18290.43, -20508.37, -22993.35, -21204.83, 0.000, 0.000, 0.000, 10:45:21.988, 1583739921988
41, -25554.46, -30247.83, -19279.36, -15568.55, -18782.77, -20553.68, -23139.17, -21405.13, 0.000, 0.000, 0.000, 10:45:21.989, 1583739921989
42, -25383.82, -30215.13, -19248.83, -15523.89, -18595.67, -20525.36, -23033.52, -21332.68, -0.004, -0.028, 0.968, 10:45:21.989, 1583739921989
43, -24784.33, -30148.52, -19124.69, -15426.41, -17951.49, -20486.18, -22751.86, -21047.12, 0.000, 0.000, 0.000, 10:45:21.989, 1583739921989
44, -24723.62, -30168.51, -19086.36, -15373.46, -17769.28, -20468.27, -22756.22, -20983.10, 0.000, 0.000, 0.000, 10:45:21.989, 1583739921989
45, -25215.38, -30231.02, -19181.66, -15457.15, -18288.22, -20512.53, -22997.08, -21205.01, 0.000, 0.000, 0.000, 10:45:21.989, 1583739921989
46, -25558.68, -30254.02, -19283.50, -15582.70, -18786.10, -20565.62, -23143.82, -21411.63, 0.000, 0.000, 0.000, 10:45:21.989, 1583739921989
47, -25386.69, -30224.68, -19249.84, -15536.47, -18598.69, -20534.26, -23037.79, -21337.58, 0.000, 0.000, 0.000, 10:45:21.989, 1583739921989
48, -24784.73, -30154.87, -19122.72, -15426.68, -17952.07, -20486.89, -22751.79, -21045.46, 0.000, 0.000, 0.000, 10:45:21.992, 1583739921992
49, -24719.82, -30167.57, -19084.68, -15374.54, -17765.05, -20467.96, -22752.73, -20978.50, 0.000, 0.000, 0.000, 10:45:21.992, 1583739921992
50, -25214.42, -30229.01, -19181.33, -15454.13, -18284.08, -20511.59, -22997.49, -21204.00, 0.000, 0.000, 0.000, 10:45:21.993, 1583739921993
51, -25555.62, -30247.92, -19275.67, -15559.99, -18776.27, -20552.70, -23139.24, -21401.06, 0.000, 0.000, 0.000, 10:45:21.993, 1583739921993
52, -25393.79, -30222.11, -19250.82, -15525.79, -18604.36, -20529.34, -23043.20, -21335.88, -0.008, -0.024, 0.972, 10:45:21.993, 1583739921993
53, -24794.05, -30153.22, -19129.14, -15433.41, -17963.11, -20492.77, -22762.39, -21051.52, 0.000, 0.000, 0.000, 10:45:21.993, 1583739921993
54, -24724.29, -30170.88, -19092.95, -15383.34, -17775.98, -20474.51, -22759.98, -20982.68, 0.000, 0.000, 0.000, 10:45:21.993, 1583739921993
55, -25210.33, -30218.60, -19186.47, -15461.01, -18287.06, -20512.29, -22994.11, -21198.60, 0.000, 0.000, 0.000, 10:45:21.993, 1583739921993
56, -25551.40, -30238.94, -19282.98, -15570.54, -18781.66, -20555.13, -23135.98, -21396.74, 0.000, 0.000, 0.000, 10:45:21.993, 1583739921993
57, -25388.50, -30222.49, -19245.28, -15524.58, -18598.75, -20523.95, -23030.66, -21327.52, 0.000, 0.000, 0.000, 10:45:21.994, 1583739921994
58, -24791.01, -30157.46, -19123.28, -15432.02, -17955.78, -20488.30, -22747.62, -21045.98, 0.000, 0.000, 0.000, 10:45:21.994, 1583739921994
59, -24718.39, -30173.76, -19083.63, -15379.45, -17761.88, -20469.59, -22746.07, -20973.40, 0.000, 0.000, 0.000, 10:45:21.994, 1583739921994
60, -25206.33, -30232.99, -19173.53, -15450.62, -18270.92, -20504.57, -22984.46, -21187.87, 0.000, 0.000, 0.000, 10:45:21.994, 1583739921994
61, -25547.28, -30246.98, -19270.62, -15569.24, -18768.11, -20550.62, -23128.47, -21390.53, 0.000, 0.000, 0.000, 10:45:21.994, 1583739921994
62, -25390.55, -30221.84, -19245.12, -15528.45, -18601.21, -20525.34, -23034.72, -21328.01, -0.004, -0.026, 0.970, 10:45:21.994, 1583739921994
63, -24792.44, -30158.74, -19121.87, -15428.40, -17959.78, -20485.87, -22751.77, -21042.54, 0.000, 0.000, 0.000, 10:45:21.995, 1583739921995
64, -24717.16, -30164.48, -19076.01, -15371.76, -17758.26, -20463.71, -22742.25, -20969.94, 0.000, 0.000, 0.000, 10:45:21.995, 1583739921995
65, -25198.75, -30222.93, -19168.12, -15458.51, -18267.39, -20508.22, -22978.78, -21191.69, 0.000, 0.000, 0.000, 10:45:21.995, 1583739921995
66, -25545.52, -30242.58, -19269.48, -15564.01, -18767.64, -20554.02, -23125.72, -21394.71, 0.000, 0.000, 0.000, 10:45:21.995, 1583739921995
67, -25392.61, -30219.89, -19243.26, -15519.17, -18600.21, -20527.95, -23031.46, -21333.49, 0.000, 0.000, 0.000, 10:45:21.995, 1583739921995
68, -24794.97, -30164.73, -19119.08, -15420.33, -17958.66, -20486.85, -22749.18, -21047.74, 0.000, 0.000, 0.000, 10:45:21.995, 1583739921995
69, -24714.01, -30178.36, -19074.55, -15360.48, -17755.38, -20461.95, -22741.13, -20970.90, 0.000, 0.000, 0.000, 10:45:21.995, 1583739921995
70, -25198.04, -30229.48, -19167.45, -15440.54, -18264.97, -20501.29, -22980.25, -21189.25, 0.000, 0.000, 0.000, 10:45:21.996, 1583739921996
71, -25546.90, -30253.93, -19272.41, -15565.89, -18772.47, -20553.97, -23131.02, -21398.53, 0.000, 0.000, 0.000, 10:45:21.996, 1583739921996
72, -25398.60, -30231.67, -19254.69, -15543.94, -18615.94, -20538.99, -23041.68, -21346.32, -0.002, -0.024, 0.972, 10:45:21.996, 1583739921996
73, -24799.57, -30162.18, -19130.99, -15443.02, -17974.18, -20498.38, -22758.37, -21059.54, 0.000, 0.000, 0.000, 10:45:21.996, 1583739921996
74, -24712.24, -30170.85, -19079.43, -15367.47, -17759.73, -20464.14, -22742.65, -20970.94, 0.000, 0.000, 0.000, 10:45:21.996, 1583739921996
75, -25201.28, -30230.38, -19168.10, -15443.60, -18263.63, -20501.96, -22979.87, -21185.63, 0.000, 0.000, 0.000, 10:45:21.996, 1583739921996
76, -25547.44, -30246.07, -19265.55, -15561.69, -18764.27, -20548.88, -23123.04, -21387.65, 0.000, 0.000, 0.000, 10:45:21.996, 1583739921996
77, -25402.51, -30227.04, -19245.30, -15529.41, -18604.76, -20529.67, -23033.96, -21332.95, 0.000, 0.000, 0.000, 10:45:21.997, 1583739921997
78, -24798.57, -30158.85, -19119.30, -15428.38, -17959.87, -20487.25, -22750.07, -21045.96, 0.000, 0.000, 0.000, 10:45:21.997, 1583739921997
79, -24706.30, -30171.08, -19074.44, -15368.57, -17751.35, -20463.13, -22739.03, -20966.00, 0.000, 0.000, 0.000, 10:45:21.997, 1583739921997
80, -25192.83, -30234.55, -19169.39, -15442.73, -18257.64, -20502.99, -22979.49, -21184.11, 0.000, 0.000, 0.000, 10:45:21.997, 1583739921997
81, -25546.28, -30256.77, -19271.29, -15558.60, -18765.65, -20551.47, -23129.09, -21389.01, 0.000, 0.000, 0.000, 10:45:21.997, 1583739921997
82, -25402.58, -30229.59, -19249.70, -15532.79, -18614.20, -20534.26, -23041.43, -21337.53, -0.006, -0.022, 0.970, 10:45:21.997, 1583739921997
83, -24801.76, -30165.06, -19127.66, -15440.29, -17972.70, -20499.14, -22759.30, -21055.50, 0.000, 0.000, 0.000, 10:45:21.997, 1583739921997
84, -24707.91, -30174.09, -19074.44, -15364.34, -17753.19, -20465.23, -22740.24, -20967.75, 0.000, 0.000, 0.000, 10:45:21.997, 1583739921997
85, -25197.57, -30233.39, -19169.88, -15436.27, -18257.15, -20502.36, -22980.28, -21184.18, 0.000, 0.000, 0.000, 10:45:21.998, 1583739921998
86, -25549.72, -30258.88, -19279.45, -15565.26, -18772.27, -20558.11, -23135.04, -21393.64, 0.000, 0.000, 0.000, 10:45:21.998, 1583739921998
87, -25402.04, -30232.52, -19253.21, -15534.26, -18618.64, -20534.01, -23043.69, -21338.00, 0.000, 0.000, 0.000, 10:45:21.998, 1583739921998
88, -24799.57, -30165.27, -19121.38, -15432.11, -17972.01, -20490.22, -22757.56, -21051.52, 0.000, 0.000, 0.000, 10:45:21.998, 1583739921998
89, -24707.75, -30180.93, -19078.82, -15371.05, -17760.03, -20466.84, -22744.53, -20971.54, 0.000, 0.000, 0.000, 10:45:21.998, 1583739921998
90, -25189.43, -30232.54, -19163.54, -15442.35, -18251.67, -20499.05, -22973.73, -21180.22, 0.000, 0.000, 0.000, 10:45:22.451, 1583739922451
91, -25545.52, -30256.19, -19266.13, -15566.45, -18760.67, -20550.21, -23123.21, -21386.62, 0.000, 0.000, 0.000, 10:45:22.452, 1583739922452
92, -25407.85, -30236.63, -19249.14, -15535.51, -18616.79, -20531.46, -23039.37, -21337.15, -0.006, -0.026, 0.970, 10:45:22.452, 1583739922452
93, -24804.71, -30161.80, -19119.62, -15419.33, -17967.58, -20480.93, -22751.24, -21045.66, 0.000, 0.000, 0.000, 10:45:22.452, 1583739922452
94, -24706.97, -30169.51, -19068.03, -15355.76, -17747.26, -20455.71, -22732.42, -20961.67, 0.000, 0.000, 0.000, 10:45:22.452, 1583739922452
95, -25188.31, -30227.02, -19157.25, -15438.86, -18244.92, -20499.21, -22969.34, -21179.98, 0.000, 0.000, 0.000, 10:45:22.453, 1583739922453
96, -25547.51, -30258.83, -19266.67, -15568.64, -18763.22, -20556.50, -23125.49, -21395.11, 0.000, 0.000, 0.000, 10:45:22.453, 1583739922453
97, -25417.26, -30243.43, -19254.42, -15545.66, -18625.80, -20541.45, -23046.14, -21352.53, 0.000, 0.000, 0.000, 10:45:22.453, 1583739922453
98, -24813.70, -30170.65, -19128.44, -15443.18, -17980.12, -20497.91, -22761.25, -21065.83, 0.000, 0.000, 0.000, 10:45:22.453, 1583739922453
99, -24701.49, -30171.08, -19074.46, -15376.30, -17750.44, -20468.86, -22734.16, -20974.45, 0.000, 0.000, 0.000, 10:45:22.453, 1583739922453
100, -25186.86, -30235.52, -19168.01, -15446.87, -18250.56, -20507.28, -22974.33, -21188.60, 0.000, 0.000, 0.000, 10:45:22.454, 1583739922454
101, -25548.85, -30256.37, -19275.27, -15566.76, -18771.84, -20559.60, -23133.23, -21398.04, 0.000, 0.000, 0.000, 10:45:22.457, 1583739922457
102, -25412.90, -30227.67, -19249.59, -15532.03, -18626.87, -20534.50, -23047.04, -21344.15, -0.004, -0.024, 0.976, 10:45:22.458, 1583739922458
103, -24815.93, -30164.01, -19124.96, -15433.75, -17983.54, -20494.36, -22765.41, -21059.61, 0.000, 0.000, 0.000, 10:45:22.458, 1583739922458
104, -24706.37, -30169.29, -19076.97, -15372.34, -17754.84, -20468.65, -22741.51, -20970.32, 0.000, 0.000, 0.000, 10:45:22.458, 1583739922458
105, -25189.01, -30235.05, -19173.42, -15456.54, -18253.06, -20513.16, -22983.72, -21188.94, 0.000, 0.000, 0.000, 10:45:22.458, 1583739922458
106, -25548.65, -30262.63, -19277.19, -15572.95, -18770.79, -20562.40, -23138.17, -21396.10, 0.000, 0.000, 0.000, 10:45:22.458, 1583739922458
107, -25416.97, -30233.53, -19248.56, -15525.45, -18624.84, -20528.65, -23048.94, -21338.27, 0.000, 0.000, 0.000, 10:45:22.458, 1583739922458
108, -24813.01, -30159.14, -19121.83, -15424.02, -17981.89, -20485.13, -22764.83, -21050.56, 0.000, 0.000, 0.000, 10:45:22.458, 1583739922458
109, -24698.43, -30161.80, -19070.28, -15363.99, -17749.54, -20460.61, -22739.37, -20959.43, 0.000, 0.000, 0.000, 10:45:22.459, 1583739922459
110, -25185.10, -30223.00, -19161.48, -15441.30, -18238.29, -20502.05, -22976.38, -21175.35, 0.000, 0.000, 0.000, 10:45:22.459, 1583739922459
111, -25551.33, -30255.81, -19268.83, -15565.44, -18760.96, -20557.73, -23134.57, -21390.53, 0.000, 0.000, 0.000, 10:45:22.459, 1583739922459
112, -25424.73, -30233.75, -19251.87, -15540.30, -18630.98, -20538.57, -23056.20, -21346.45, 0.000, 0.000, 0.000, 10:45:22.459, 1583739922459
113, -24819.73, -30164.62, -19127.13, -15443.09, -17986.04, -20497.38, -22767.02, -21062.18, 0.000, -0.018, 0.974, 10:45:22.459, 1583739922459
114, -24700.69, -30172.31, -19073.97, -15378.36, -17748.89, -20471.74, -22740.24, -20969.56, 0.000, 0.000, 0.000, 10:45:22.459, 1583739922459
115, -25179.40, -30228.21, -19158.62, -15444.00, -18234.98, -20505.24, -22977.41, -21178.10, 0.000, 0.000, 0.000, 10:45:22.459, 1583739922459
116, -25540.26, -30251.56, -19269.19, -15567.32, -18761.81, -20557.84, -23136.74, -21390.11, 0.000, 0.000, 0.000, 10:45:22.459, 1583739922459
117, -25421.31, -30237.48, -19255.38, -15538.80, -18634.71, -20538.10, -23057.46, -21346.96, 0.000, 0.000, 0.000, 10:45:22.459, 1583739922459
118, -24823.76, -30165.15, -19125.40, -15437.81, -17989.13, -20496.41, -22767.80, -21062.47, 0.000, 0.000, 0.000, 10:45:22.460, 1583739922460
119, -24704.64, -30171.48, -19074.53, -15376.48, -17748.96, -20471.76, -22739.66, -20970.56, 0.000, 0.000, 0.000, 10:45:22.460, 1583739922460
120, -25178.39, -30230.24, -19160.50, -15440.20, -18229.90, -20501.44, -22969.99, -21174.81, 0.000, 0.000, 0.000, 10:45:22.460, 1583739922460
121, -25541.38, -30246.40, -19267.96, -15559.32, -18752.93, -20551.78, -23125.56, -21385.16, 0.000, 0.000, 0.000, 10:45:22.460, 1583739922460
122, -25421.42, -30225.37, -19250.51, -15528.87, -18627.81, -20530.86, -23048.49, -21342.72, 0.000, 0.000, 0.000, 10:45:22.461, 1583739922461
123, -24822.60, -30162.94, -19131.01, -15439.58, -17991.63, -20496.53, -22770.26, -21064.53, -0.002, -0.018, 0.972, 10:45:22.461, 1583739922461
124, -24690.81, -30162.92, -19081.75, -15383.50, -17749.32, -20475.14, -22740.78, -20971.21, 0.000, 0.000, 0.000, 10:45:22.461, 1583739922461
125, -25170.03, -30226.84, -19167.43, -15447.11, -18234.93, -20507.46, -22974.15, -21179.30, 0.000, 0.000, 0.000, 10:45:22.461, 1583739922461
126, -25542.57, -30259.23, -19274.38, -15565.24, -18761.38, -20558.60, -23132.78, -21391.65, 0.000, 0.000, 0.000, 10:45:22.461, 1583739922461
127, -25426.09, -30234.85, -19255.24, -15535.98, -18635.36, -20536.16, -23053.54, -21349.63, 0.000, 0.000, 0.000, 10:45:22.461, 1583739922461
128, -24830.80, -30171.01, -19129.81, -15436.27, -17995.79, -20494.96, -22770.57, -21066.23, 0.000, 0.000, 0.000, 10:45:22.461, 1583739922461
129, -24693.74, -30162.16, -19062.66, -15358.73, -17737.81, -20457.70, -22725.91, -20957.08, 0.000, 0.000, 0.000, 10:45:22.462, 1583739922462
130, -25173.34, -30231.56, -19159.85, -15440.34, -18227.40, -20502.56, -22966.66, -21173.74, 0.000, 0.000, 0.000, 10:45:22.462, 1583739922462
131, -25539.44, -30254.25, -19271.56, -15575.63, -18757.58, -20562.69, -23127.97, -21391.15, 0.000, 0.000, 0.000, 10:45:22.462, 1583739922462
132, -25424.57, -30230.93, -19257.75, -15552.14, -18641.29, -20544.07, -23053.79, -21352.49, 0.000, 0.000, 0.000, 10:45:22.462, 1583739922462
133, -24827.51, -30163.14, -19132.73, -15440.74, -17998.50, -20494.94, -22769.50, -21064.08, 0.008, -0.022, 0.972, 10:45:22.462, 1583739922462
134, -24695.66, -30168.62, -19080.25, -15372.90, -17749.38, -20468.99, -22738.36, -20966.00, 0.000, 0.000, 0.000, 10:45:22.462, 1583739922462
135, -25166.65, -30223.83, -19166.22, -15443.89, -18228.47, -20503.14, -22970.87, -21171.55, 0.000, 0.000, 0.000, 10:45:22.463, 1583739922463
136, -25536.29, -30247.72, -19276.68, -15570.16, -18758.07, -20558.37, -23131.57, -21387.65, 0.000, 0.000, 0.000, 10:45:22.463, 1583739922463
137, -25426.43, -30229.64, -19258.80, -15541.99, -18643.28, -20538.84, -23055.80, -21349.83, 0.000, 0.000, 0.000, 10:45:22.463, 1583739922463
138, -24827.87, -30156.99, -19128.85, -15432.94, -17999.95, -20493.20, -22768.00, -21063.90, 0.000, 0.000, 0.000, 10:45:22.463, 1583739922463
139, -24693.22, -30168.73, -19079.16, -15371.94, -17747.55, -20471.20, -22736.13, -20965.98, 0.000, 0.000, 0.000, 10:45:22.463, 1583739922463
140, -25170.10, -30237.53, -19170.58, -15453.84, -18231.29, -20514.50, -22975.92, -21178.70, 0.000, 0.000, 0.000, 10:45:22.463, 1583739922463
141, -25542.50, -30259.75, -19283.27, -15592.15, -18766.50, -20575.81, -23137.77, -21398.06, 0.000, 0.000, 0.000, 10:45:22.463, 1583739922463
142, -25436.53, -30237.64, -19268.39, -15556.25, -18654.34, -20550.57, -23063.36, -21356.78, 0.000, 0.000, 0.000, 10:45:22.464, 1583739922464
143, -24839.63, -30170.90, -19137.54, -15439.60, -18008.06, -20497.80, -22774.30, -21066.29, 0.004, -0.022, 0.976, 10:45:22.464, 1583739922464
144, -24699.01, -30176.60, -19082.64, -15377.62, -17748.31, -20470.60, -22733.89, -20964.06, 0.000, 0.000, 0.000, 10:45:22.464, 1583739922464
145, -25169.99, -30230.89, -19169.08, -15452.25, -18223.24, -20506.27, -22968.00, -21170.95, 0.000, 0.000, 0.000, 10:45:22.464, 1583739922464
146, -25548.51, -30261.47, -19279.52, -15580.55, -18756.60, -20563.40, -23132.58, -21389.32, 0.000, 0.000, 0.000, 10:45:22.464, 1583739922464
147, -25434.70, -30236.34, -19253.61, -15542.49, -18637.22, -20534.81, -23050.77, -21343.57, 0.000, 0.000, 0.000, 10:45:22.464, 1583739922464
148, -24835.83, -30167.25, -19122.07, -15430.73, -17988.68, -20485.06, -22760.69, -21054.69, 0.000, 0.000, 0.000, 10:45:22.464, 1583739922464
149, -24692.17, -30175.23, -19069.19, -15367.07, -17730.16, -20457.86, -22720.26, -20950.20, 0.000, 0.000, 0.000, 10:45:22.465, 1583739922465
150, -25167.75, -30235.29, -19160.41, -15440.61, -18210.32, -20498.87, -22959.02, -21163.12, 0.000, 0.000, 0.000, 10:45:22.465, 1583739922465
151, -25544.98, -30255.12, -19278.83, -15577.96, -18754.54, -20563.85, -23128.60, -21389.41, 0.000, 0.000, 0.000, 10:45:22.465, 1583739922465
152, -25439.90, -30235.29, -19263.43, -15556.59, -18648.44, -20545.54, -23055.85, -21356.09, 0.000, 0.000, 0.000, 10:45:22.465, 1583739922465
153, -24840.74, -30175.55, -19138.79, -15459.27, -18010.50, -20506.65, -22771.64, -21074.01, 0.000, -0.018, 0.970, 10:45:22.465, 1583739922465
154, -24688.66, -30167.41, -19076.52, -15376.93, -17742.05, -20470.08, -22726.78, -20961.40, 0.000, 0.000, 0.000, 10:45:22.465, 1583739922465
155, -25163.95, -30230.62, -19164.54, -15441.84, -18217.03, -20505.62, -22965.68, -21169.49, 0.000, 0.000, 0.000, 10:45:22.466, 1583739922466
156, -25535.19, -30254.67, -19272.52, -15576.91, -18752.35, -20564.74, -23126.95, -21390.55, 0.000, 0.000, 0.000, 10:45:22.467, 1583739922467
157, -25434.09, -30227.18, -19259.85, -15558.74, -18652.69, -20548.16, -23055.87, -21360.33, 0.000, 0.000, 0.000, 10:45:22.467, 1583739922467
158, -24841.26, -30168.13, -19139.62, -15456.79, -18016.60, -20505.94, -22776.11, -21079.39, 0.000, 0.000, 0.000, 10:45:22.467, 1583739922467
159, -24686.63, -30172.82, -19079.00, -15379.18, -17741.76, -20470.38, -22729.06, -20964.42, 0.000, 0.000, 0.000, 10:45:22.467, 1583739922467
160, -25158.09, -30233.97, -19170.29, -15451.47, -18216.04, -20509.51, -22965.23, -21170.77, 0.000, 0.000, 0.000, 10:45:22.468, 1583739922468
161, -25536.87, -30257.33, -19280.86, -15581.38, -18757.07, -20568.83, -23130.50, -21391.27, 0.000, 0.000, 0.000, 10:45:22.468, 1583739922468
162, -25442.70, -30240.68, -19267.25, -15548.28, -18660.24, -20545.05, -23062.10, -21357.81, 0.000, 0.000, 0.000, 10:45:22.468, 1583739922468
163, -24843.05, -30171.54, -19129.29, -15433.30, -18012.53, -20490.54, -22768.98, -21065.27, -0.002, -0.020, 0.978, 10:45:22.468, 1583739922468
164, -24690.03, -30174.90, -19075.11, -15375.81, -17743.26, -20467.87, -22726.87, -20959.99, 0.000, 0.000, 0.000, 10:45:22.469, 1583739922469
165, -25166.77, -30233.77, -19169.79, -15459.96, -18217.61, -20513.09, -22967.33, -21173.81, 0.000, 0.000, 0.000, 10:45:22.469, 1583739922469
166, -25544.40, -30254.56, -19281.33, -15586.70, -18754.95, -20566.55, -23132.20, -21390.24, 0.000, 0.000, 0.000, 10:45:22.469, 1583739922469
167, -25453.43, -30242.74, -19270.36, -15552.83, -18663.24, -20543.80, -23069.26, -21361.38, 0.000, 0.000, 0.000, 10:45:22.469, 1583739922469
168, -24860.55, -30180.89, -19144.83, -15443.92, -18024.54, -20498.27, -22784.90, -21078.01, 0.000, 0.000, 0.000, 10:45:22.470, 1583739922470
169, -24699.77, -30181.34, -19087.49, -15380.59, -17749.92, -20471.92, -22737.09, -20966.14, 0.000, 0.000, 0.000, 10:45:22.470, 1583739922470
170, -25165.45, -30242.38, -19174.02, -15451.11, -18216.02, -20507.52, -22972.68, -21170.12, 0.000, 0.000, 0.000, 10:45:22.470, 1583739922470
171, -25542.16, -30269.54, -19281.78, -15580.44, -18757.49, -20564.88, -23137.56, -21391.33, 0.000, 0.000, 0.000, 10:45:22.470, 1583739922470
172, -25455.75, -30252.95, -19269.13, -15555.94, -18667.82, -20548.67, -23075.13, -21365.85, 0.000, 0.000, 0.000, 10:45:22.470, 1583739922470
173, -24855.54, -30178.32, -19140.47, -15445.10, -18025.70, -20499.07, -22786.87, -21077.25, 0.002, -0.020, 0.974, 10:45:22.471, 1583739922471
174, -24692.04, -30170.18, -19076.48, -15370.22, -17741.58, -20465.64, -22735.30, -20960.30, 0.000, 0.000, 0.000, 10:45:22.471, 1583739922471
175, -25159.48, -30235.20, -19167.20, -15443.76, -18209.59, -20504.82, -22972.36, -21166.97, 0.000, 0.000, 0.000, 10:45:22.471, 1583739922471
176, -25539.37, -30263.79, -19278.94, -15573.00, -18752.78, -20562.51, -23137.07, -21386.73, 0.000, 0.000, 0.000, 10:45:22.471, 1583739922471
177, -25451.28, -30245.57, -19262.67, -15546.78, -18660.60, -20539.69, -23066.93, -21357.11, 0.000, 0.000, 0.000, 10:45:22.471, 1583739922471
178, -24859.90, -30179.64, -19141.50, -15451.31, -18025.38, -20500.21, -22781.90, -21078.97, 0.000, 0.000, 0.000, 10:45:22.472, 1583739922472
179, -24690.94, -30170.92, -19083.29, -15385.17, -17740.91, -20472.77, -22726.61, -20964.46, 0.000, 0.000, 0.000, 10:45:22.472, 1583739922472
180, -25163.91, -30239.76, -19170.44, -15453.30, -18204.87, -20507.93, -22961.07, -21169.02, 0.000, 0.000, 0.000, 10:45:22.472, 1583739922472
181, -25542.07, -30259.37, -19271.49, -15572.71, -18741.36, -20555.96, -23120.17, -21382.37, 0.000, 0.000, 0.000, 10:45:22.472, 1583739922472
182, -25459.60, -30243.52, -19258.69, -15555.52, -18655.28, -20541.34, -23059.11, -21359.71, 0.000, 0.000, 0.000, 10:45:22.472, 1583739922472
183, -24860.23, -30174.21, -19128.64, -15441.12, -18015.24, -20491.21, -22769.19, -21072.62, 0.006, -0.020, 0.970, 10:45:22.472, 1583739922472
184, -24685.18, -30169.65, -19068.59, -15366.24, -17729.72, -20460.18, -22717.46, -20954.87, 0.000, 0.000, 0.000, 10:45:22.473, 1583739922473
185, -25150.56, -30224.74, -19153.54, -15434.62, -18189.42, -20494.96, -22952.34, -21157.06, 0.000, 0.000, 0.000, 10:45:22.473, 1583739922473
186, -25541.49, -30259.70, -19270.53, -15568.10, -18740.02, -20555.47, -23124.82, -21381.81, 0.000, 0.000, 0.000, 10:45:22.473, 1583739922473
187, -25460.80, -30246.74, -19265.46, -15546.02, -18662.12, -20537.41, -23068.99, -21357.92, 0.000, 0.000, 0.000, 10:45:22.473, 1583739922473
188, -24862.89, -30172.48, -19140.42, -15439.04, -18024.76, -20487.32, -22780.81, -21069.00, 0.000, 0.000, 0.000, 10:45:22.473, 1583739922473
189, -24696.62, -30176.55, -19083.40, -15378.60, -17741.07, -20465.08, -22730.45, -20955.83, 0.000, 0.000, 0.000, 10:45:22.473, 1583739922473
190, -25168.89, -30247.54, -19173.42, -15450.49, -18204.02, -20505.33, -22970.17, -21163.66, 0.000, 0.000, 0.000, 10:45:22.474, 1583739922474
191, -25554.79, -30276.42, -19285.82, -15585.04, -18750.01, -20565.93, -23138.46, -21389.03, 0.000, 0.000, 0.000, 10:45:22.474, 1583739922474
192, -25476.09, -30262.14, -19277.31, -15573.29, -18674.97, -20553.10, -23078.76, -21372.69, 0.000, 0.000, 0.000, 10:45:22.474, 1583739922474
193, -24880.20, -30191.95, -19151.98, -15463.18, -18038.04, -20505.06, -22791.11, -21088.91, 0.008, -0.020, 0.970, 10:45:22.474, 1583739922474
194, -24707.48, -30194.84, -19092.55, -15389.76, -17749.99, -20477.79, -22736.24, -20970.85, 0.000, 0.000, 0.000, 10:45:22.474, 1583739922474
195, -25183.35, -30266.83, -19175.61, -15450.55, -18203.89, -20511.46, -22969.97, -21172.91, 0.000, 0.000, 0.000, 10:45:22.474, 1583739922474
196, -25572.03, -30297.25, -19284.44, -15580.71, -18747.35, -20566.53, -23133.96, -21392.68, 0.000, 0.000, 0.000, 10:45:22.475, 1583739922475
197, -25503.38, -30286.54, -19276.61, -15560.75, -18674.79, -20548.43, -23076.54, -21370.32, 0.000, 0.000, 0.000, 10:45:22.475, 1583739922475
198, -24925.37, -30233.68, -19155.38, -15463.47, -18043.87, -20508.15, -22796.28, -21092.33, 0.000, 0.000, 0.000, 10:45:22.475, 1583739922475
199, -24753.44, -30243.25, -19096.59, -15403.46, -17750.75, -20486.83, -22738.90, -20978.23, 0.000, 0.000, 0.000, 10:45:22.475, 1583739922475
200, -25231.63, -30322.89, -19185.46, -15472.93, -18207.66, -20526.59, -22975.60, -21184.85, 0.000, 0.000, 0.000, 10:45:22.475, 1583739922475
201, -25630.16, -30360.28, -19292.57, -15594.70, -18755.82, -20578.40, -23142.39, -21404.57, 0.000, 0.000, 0.000, 10:45:22.475, 1583739922475
202, -25584.86, -30370.41, -19297.49, -15586.50, -18696.36, -20571.36, -23096.32, -21395.04, 0.000, 0.000, 0.000, 10:45:22.476, 1583739922476
203, -25012.36, -30325.59, -19163.96, -15465.69, -18053.53, -20515.12, -22808.81, -21105.16, 0.000, 0.000, 0.000, 10:45:22.476, 1583739922476
204, -24844.95, -30346.45, -19093.75, -15387.99, -17746.99, -20479.54, -22744.53, -20977.40, 0.000, -0.018, 0.970, 10:45:22.476, 1583739922476
205, -25335.19, -30441.94, -19184.59, -15464.86, -18202.84, -20522.72, -22982.15, -21184.20, 0.000, 0.000, 0.000, 10:45:22.476, 1583739922476
206, -25740.11, -30485.03, -19298.94, -15600.98, -18757.34, -20583.10, -23152.09, -21408.63, 0.000, 0.000, 0.000, 10:45:22.476, 1583739922476
207, -25683.67, -30480.36, -19291.28, -15580.95, -18694.24, -20564.70, -23097.53, -21390.08, 0.000, 0.000, 0.000, 10:45:22.477, 1583739922477
208, -25107.20, -30432.37, -19163.69, -15478.74, -18059.74, -20521.56, -22813.08, -21112.09, 0.000, 0.000, 0.000, 10:45:22.477, 1583739922477
209, -24926.89, -30448.64, -19098.96, -15399.26, -17756.74, -20490.38, -22751.24, -20987.30, 0.000, 0.000, 0.000, 10:45:22.477, 1583739922477
210, -25393.73, -30518.22, -19182.69, -15461.08, -18202.95, -20523.95, -22985.57, -21186.70, 0.000, 0.000, 0.000, 10:45:22.932, 1583739922932
211, -25795.01, -30563.57, -19304.73, -15606.97, -18762.46, -20593.85, -23166.08, -21422.58, 0.000, 0.000, 0.000, 10:45:22.933, 1583739922933
212, -25730.08, -30557.74, -19305.02, -15590.92, -18707.61, -20580.81, -23117.43, -21409.97, 0.000, 0.000, 0.000, 10:45:22.933, 1583739922933
213, -25135.94, -30483.84, -19177.01, -15480.97, -18072.77, -20532.40, -22826.36, -21123.52, 0.000, 0.000, 0.000, 10:45:22.933, 1583739922933
214, -24951.45, -30478.93, -19115.57, -15414.17, -17771.02, -20508.66, -22766.12, -21003.53, 0.002, -0.022, 0.964, 10:45:22.933, 1583739922933
215, -25411.52, -30537.94, -19201.85, -15480.30, -18220.11, -20543.00, -22998.63, -21202.39, 0.000, 0.000, 0.000, 10:45:22.933, 1583739922933
216, -25798.61, -30562.19, -19308.73, -15608.83, -18773.36, -20598.41, -23165.79, -21425.20, 0.000, 0.000, 0.000, 10:45:22.933, 1583739922933
217, -25739.04, -30547.86, -19306.54, -15595.08, -18718.40, -20587.28, -23118.52, -21417.69, 0.000, 0.000, 0.000, 10:45:22.934, 1583739922934
218, -25148.77, -30483.46, -19188.01, -15500.17, -18091.41, -20548.43, -22837.42, -21142.98, 0.000, 0.000, 0.000, 10:45:22.934, 1583739922934
219, -24945.89, -30477.70, -19112.64, -15418.93, -17772.54, -20510.23, -22763.42, -21007.98, 0.000, 0.000, 0.000, 10:45:22.934, 1583739922934
220, -25410.96, -30544.44, -19194.40, -15478.85, -18213.79, -20543.22, -22995.34, -21205.86, 0.000, 0.000, 0.000, 10:45:22.934, 1583739922934
221, -25797.53, -30561.34, -19302.14, -15607.04, -18763.04, -20595.70, -23160.12, -21424.75, 0.000, 0.000, 0.000, 10:45:22.939, 1583739922939
222, -25729.14, -30542.00, -19295.32, -15589.80, -18705.93, -20577.64, -23104.75, -21409.95, 0.000, 0.000, 0.000, 10:45:22.939, 1583739922939
223, -25138.09, -30474.10, -19172.72, -15481.98, -18076.21, -20533.50, -22822.56, -21131.49, 0.000, 0.000, 0.000, 10:45:22.939, 1583739922939
224, -24933.21, -30465.65, -19106.85, -15412.09, -17762.64, -20505.31, -22755.10, -21002.73, 0.000, -0.020, 0.968, 10:45:22.940, 1583739922940
225, -25387.85, -30521.55, -19186.33, -15470.42, -18201.90, -20534.66, -22983.83, -21195.58, 0.000, 0.000, 0.000, 10:45:22.940, 1583739922940
226, -25782.80, -30548.71, -19304.17, -15609.97, -18764.98, -20599.57, -23163.89, -21426.76, 0.000, 0.000, 0.000, 10:45:22.940, 1583739922940
227, -25713.13, -30524.23, -19302.61, -15597.78, -18717.22, -20584.37, -23116.20, -21412.30, 0.000, 0.000, 0.000, 10:45:22.940, 1583739922940
228, -25116.86, -30450.96, -19180.28, -15491.28, -18087.41, -20535.13, -22831.84, -21128.57, 0.000, 0.000, 0.000, 10:45:22.941, 1583739922941
229, -24903.17, -30434.76, -19114.67, -15414.25, -17768.96, -20502.72, -22762.26, -20994.88, 0.000, 0.000, 0.000, 10:45:22.941, 1583739922941
230, -25355.84, -30493.50, -19195.65, -15470.33, -18208.80, -20535.80, -22994.94, -21188.92, 0.000, 0.000, 0.000, 10:45:22.941, 1583739922941
231, -25748.22, -30517.08, -19301.22, -15597.25, -18764.83, -20591.57, -23164.39, -21413.19, 0.000, 0.000, 0.000, 10:45:22.941, 1583739922941
232, -25689.26, -30490.51, -19301.27, -15579.32, -18718.38, -20572.01, -23114.61, -21398.67, 0.000, 0.000, 0.000, 10:45:22.941, 1583739922941
233, -25101.90, -30419.40, -19180.86, -15478.00, -18088.95, -20527.66, -22829.71, -21118.64, 0.000, 0.000, 0.000, 10:45:22.941, 1583739922941
234, -24891.01, -30410.53, -19109.45, -15404.53, -17765.23, -20497.20, -22756.22, -20984.40, -0.002, -0.020, 0.968, 10:45:22.941, 1583739922941
235, -25343.10, -30466.54, -19190.25, -15465.93, -18200.49, -20529.47, -22986.60, -21178.03, 0.000, 0.000, 0.000, 10:45:22.942, 1583739922942
236, -25732.82, -30483.84, -19298.79, -15606.97, -18759.80, -20588.35, -23156.29, -21404.37, 0.000, 0.000, 0.000, 10:45:22.942, 1583739922942
237, -25671.67, -30465.05, -19295.97, -15590.16, -18712.95, -20570.64, -23107.95, -21394.13, 0.000, 0.000, 0.000, 10:45:22.942, 1583739922942
238, -25074.68, -30387.40, -19163.54, -15463.41, -18073.17, -20510.63, -22816.46, -21102.57, 0.000, 0.000, 0.000, 10:45:22.942, 1583739922942
239, -24857.64, -30379.51, -19090.42, -15383.70, -17743.46, -20474.02, -22737.63, -20963.74, 0.000, 0.000, 0.000, 10:45:22.942, 1583739922942
240, -25311.07, -30443.07, -19170.46, -15446.89, -18175.77, -20507.90, -22965.23, -21159.23, 0.000, 0.000, 0.000, 10:45:22.942, 1583739922942
241, -25701.76, -30461.54, -19276.23, -15578.76, -18729.62, -20566.35, -23130.54, -21385.61, 0.000, 0.000, 0.000, 10:45:22.942, 1583739922942
242, -25647.20, -30436.97, -19271.20, -15565.06, -18686.95, -20551.18, -23082.58, -21380.31, 0.000, 0.000, 0.000, 10:45:22.942, 1583739922942
243, -25060.48, -30370.61, -19151.85, -15466.98, -18062.18, -20512.35, -22803.38, -21108.83, 0.000, 0.000, 0.000, 10:45:22.943, 1583739922943
244, -24842.31, -30355.84, -19090.02, -15403.82, -17740.02, -20491.05, -22733.82, -20982.45, -0.004, -0.024, 0.972, 10:45:22.943, 1583739922943
245, -25290.48, -30415.89, -19172.52, -15462.47, -18171.16, -20526.70, -22967.33, -21179.89, 0.000, 0.000, 0.000, 10:45:22.943, 1583739922943
246, -25684.21, -30446.63, -19286.31, -15598.50, -18735.30, -20590.13, -23141.99, -21409.37, 0.000, 0.000, 0.000, 10:45:22.943, 1583739922943
247, -25635.06, -30429.02, -19291.48, -15593.90, -18704.19, -20582.71, -23100.46, -21408.54, 0.000, 0.000, 0.000, 10:45:22.943, 1583739922943
248, -25041.24, -30351.92, -19164.77, -15479.61, -18075.79, -20530.93, -22811.90, -21125.33, 0.000, 0.000, 0.000, 10:45:22.943, 1583739922943
249, -24823.96, -30350.23, -19100.95, -15408.29, -17750.44, -20503.48, -22739.93, -20992.45, 0.000, 0.000, 0.000, 10:45:22.943, 1583739922943
250, -25273.18, -30402.44, -19184.75, -15474.51, -18179.99, -20538.59, -22970.80, -21185.97, 0.000, 0.000, 0.000, 10:45:22.944, 1583739922944
251, -25665.03, -30418.80, -19294.00, -15601.11, -18743.08, -20591.88, -23143.08, -21409.44, 0.000, 0.000, 0.000, 10:45:22.944, 1583739922944
252, -25613.09, -30401.50, -19292.57, -15576.39, -18710.96, -20570.35, -23100.26, -21399.94, 0.000, 0.000, 0.000, 10:45:22.944, 1583739922944
253, -25023.71, -30329.91, -19175.36, -15481.06, -18088.57, -20529.85, -22820.93, -21125.46, 0.000, 0.000, 0.000, 10:45:22.944, 1583739922944
254, -24798.61, -30319.49, -19106.65, -15407.97, -17757.66, -20499.99, -22745.80, -20987.48, -0.006, -0.020, 0.970, 10:45:22.944, 1583739922944
255, -25237.96, -30366.43, -19175.07, -15448.27, -18173.85, -20517.27, -22966.33, -21167.10, 0.000, 0.000, 0.000, 10:45:22.944, 1583739922944
0, -25635.93, -30388.20, -19290.47, -15588.24, -18738.65, -20580.17, -23142.71, -21397.97, 0.000, 0.000, 0.000, 10:45:22.944, 1583739922944
1, -25595.32, -30376.04, -19298.72, -15593.49, -18716.52, -20576.75, -23107.37, -21402.73, 0.000, 0.000, 0.000, 10:45:22.944, 1583739922944
2, -25003.69, -30302.53, -19169.88, -15472.61, -18086.96, -20519.86, -22819.01, -21116.05, 0.000, 0.000, 0.000, 10:45:22.944, 1583739922944
3, -24772.19, -30286.95, -19096.55, -15391.19, -17746.32, -20484.79, -22734.61, -20970.99, 0.000, 0.000, 0.000, 10:45:22.945, 1583739922945
4, -25214.49, -30337.37, -19167.43, -15443.87, -18158.98, -20512.24, -22954.48, -21156.37, 0.000, 0.000, 0.000, 10:45:22.945, 1583739922945
5, -25613.67, -30367.30, -19280.75, -15579.19, -18727.74, -20573.08, -23131.30, -21386.53, 0.000, 0.000, 0.000, 10:45:22.945, 1583739922945
6, -25572.88, -30352.51, -19285.73, -15570.90, -18705.48, -20561.35, -23094.67, -21387.45, 0.000, 0.000, 0.000, 10:45:22.945, 1583739922945
7, -24988.36, -30282.52, -19167.49, -15471.47, -18086.29, -20519.41, -22817.35, -21115.11, 0.000, 0.000, 0.000, 10:45:22.945, 1583739922945
8, -24746.20, -30261.18, -19092.30, -15392.84, -17740.47, -20484.05, -22733.20, -20968.84, 0.002, -0.020, 0.970, 10:45:22.945, 1583739922945
9, -25191.55, -30325.75, -19176.25, -15457.15, -18166.47, -20519.57, -22964.32, -21160.71, 0.000, 0.000, 0.000, 10:45:22.945, 1583739922945
10, -25595.67, -30350.40, -19294.56, -15598.05, -18739.75, -20583.92, -23143.42, -21393.64, 0.000, 0.000, 0.000, 10:45:22.945, 1583739922945
11, -25557.74, -30331.25, -19293.13, -15589.25, -18716.50, -20569.51, -23101.18, -21392.74, 0.000, 0.000, 0.000, 10:45:22.946, 1583739922946
12, -24972.91, -30261.13, -19166.08, -15475.61, -18088.73, -20518.01, -22814.85, -21114.13, 0.000, 0.000, 0.000, 10:45:22.946, 1583739922946
13, -24728.54, -30242.49, -19082.89, -15380.66, -17734.70, -20475.45, -22721.69, -20961.60, 0.000, 0.000, 0.000, 10:45:22.946, 1583739922946
14, -25171.80, -30301.23, -19156.65, -15432.00, -18148.88, -20505.29, -22948.45, -21150.83, 0.000, 0.000, 0.000, 10:45:22.946, 1583739922946
15, -25574.51, -30326.78, -19278.02, -15579.97, -18728.12, -20577.60, -23134.03, -21391.22, 0.000, 0.000, 0.000, 10:45:22.946, 1583739922946
16, -25544.06, -30312.12, -19289.26, -15583.72, -18719.47, -20576.23, -23103.03, -21405.04, 0.000, 0.000, 0.000, 10:45:22.946, 1583739922946
17, -24962.85, -30248.23, -19170.00, -15483.03, -18102.88, -20538.03, -22826.07, -21136.72, 0.000, 0.000, 0.000, 10:45:22.946, 1583739922946
18, -24716.89, -30231.70, -19099.14, -15408.51, -17756.92, -20508.11, -22739.35, -20990.66, 0.000, -0.022, 0.974, 10:45:22.947, 1583739922947
19, -25160.44, -30285.99, -19179.29, -15466.40, -18171.50, -20540.18, -22968.63, -21178.63, 0.000, 0.000, 0.000, 10:45:22.947, 1583739922947
20, -25561.07, -30307.27, -19289.20, -15598.21, -18738.88, -20595.05, -23141.68, -21402.35, 0.000, 0.000, 0.000, 10:45:22.947, 1583739922947
21, -25534.36, -30291.42, -19295.68, -15588.60, -18728.35, -20579.50, -23108.55, -21403.94, 0.000, 0.000, 0.000, 10:45:22.947, 1583739922947
22, -24957.31, -30228.10, -19170.55, -15479.10, -18106.39, -20529.70, -22828.44, -21125.88, 0.000, 0.000, 0.000, 10:45:22.947, 1583739922947
23, -24709.45, -30215.69, -19088.14, -15391.68, -17747.11, -20488.21, -22731.32, -20968.93, 0.000, 0.000, 0.000, 10:45:22.947, 1583739922947
24, -25151.66, -30272.80, -19166.35, -15451.47, -18158.27, -20518.70, -22955.11, -21154.54, 0.000, 0.000, 0.000, 10:45:22.947, 1583739922947
25, -25554.68, -30301.14, -19283.95, -15589.69, -18729.85, -20579.34, -23134.64, -21385.97, 0.000, 0.000, 0.000, 10:45:22.947, 1583739922947
26, -25525.74, -30287.19, -19282.40, -15571.90, -18715.07, -20559.11, -23096.26, -21384.61, 0.000, 0.000, 0.000, 10:45:22.947, 1583739922947
27, -24944.88, -30217.68, -19155.91, -15463.07, -18091.08, -20508.26, -22811.70, -21107.02, 0.000, 0.000, 0.000, 10:45:22.948, 1583739922948
28, -24701.67, -30211.91, -19090.98, -15393.40, -17747.06, -20483.90, -22729.98, -20966.09, -0.002, -0.022, 0.970, 10:45:22.948, 1583739922948
29, -25131.38, -30261.65, -19160.34, -15441.95, -18149.21, -20508.33, -22946.52, -21144.79, 0.000, 0.000, 0.000, 10:45:22.948, 1583739922948
30, -25539.48, -30287.91, -19277.15, -15582.85, -18724.08, -20572.52, -23124.94, -21379.49, 0.000, 0.000, 0.000, 10:45:22.948, 1583739922948
31, -25522.72, -30276.76, -19286.63, -15583.28, -18722.00, -20566.94, -23096.77, -21392.05, 0.000, 0.000, 0.000, 10:45:22.948, 1583739922948
32, -24950.11, -30209.72, -19168.72, -15481.69, -18105.63, -20525.70, -22820.50, -21121.08, 0.000, 0.000, 0.000, 10:45:22.948, 1583739922948
33, -24693.60, -30189.25, -19087.58, -15394.63, -17742.57, -20485.98, -22723.27, -20965.18, 0.000, 0.000, 0.000, 10:45:22.948, 1583739922948
34, -25127.76, -30255.81, -19163.69, -15445.37, -18147.87, -20514.47, -22948.38, -21149.22, 0.000, 0.000, 0.000, 10:45:22.949, 1583739922949
35, -25536.69, -30287.02, -19284.59, -15588.17, -18726.80, -20581.15, -23132.42, -21386.53, 0.000, 0.000, 0.000, 10:45:22.949, 1583739922949
36, -25512.39, -30269.85, -19296.82, -15591.55, -18729.35, -20575.16, -23104.13, -21399.56, 0.000, 0.000, 0.000, 10:45:22.949, 1583739922949
37, -24939.88, -30203.84, -19179.07, -15490.47, -18117.29, -20534.19, -22829.06, -21130.49, 0.000, 0.000, 0.000, 10:45:22.949, 1583739922949
38, -24686.43, -30190.57, -19103.39, -15418.99, -17756.31, -20505.06, -22732.04, -20978.81, -0.002, -0.020, 0.974, 10:45:22.949, 1583739922949
39, -25118.29, -30246.13, -19172.30, -15470.63, -18157.39, -20532.45, -22950.17, -21157.51, 0.000, 0.000, 0.000, 10:45:22.949, 1583739922949
40, -25526.47, -30269.74, -19281.51, -15594.07, -18727.92, -20586.00, -23126.95, -21382.95, 0.000, 0.000, 0.000, 10:45:22.949, 1583739922949
41, -25512.15, -30263.52, -19288.04, -15581.42, -18728.73, -20570.53, -23099.79, -21390.71, 0.000, 0.000, 0.000, 10:45:22.949, 1583739922949
42, -24936.92, -30198.50, -19168.05, -15474.47, -18110.03, -20520.82, -22818.69, -21116.56, 0.000, 0.000, 0.000, 10:45:22.950, 1583739922950
43, -24676.97, -30184.09, -19096.46, -15405.74, -17748.22, -20494.56, -22723.72, -20967.97, 0.000, 0.000, 0.000, 10:45:22.950, 1583739922950
44, -25114.20, -30244.70, -19166.78, -15449.35, -18147.25, -20519.37, -22944.71, -21147.30, 0.000, 0.000, 0.000, 10:45:22.950, 1583739922950
45, -25532.96, -30276.98, -19278.65, -15578.20, -18721.66, -20574.65, -23124.58, -21377.19, 0.000, 0.000, 0.000, 10:45:22.950, 1583739922950
46, -25521.73, -30267.66, -19290.98, -15586.25, -18731.37, -20570.98, -23102.31, -21393.90, 0.000, 0.000, 0.000, 10:45:22.950, 1583739922950
47, -24942.24, -30199.20, -19171.76, -15483.92, -18115.08, -20524.42, -22823.88, -21120.97, 0.000, 0.000, 0.000, 10:45:22.950, 1583739922950
48, -24679.61, -30181.38, -19096.53, -15405.74, -17747.26, -20489.75, -22726.02, -20965.35, 0.000, 0.000, 0.000, 10:45:22.950, 1583739922950
49, -25116.45, -30239.85, -19167.78, -15450.89, -18142.04, -20514.32, -22947.53, -21143.43, 0.002, -0.022, 0.976, 10:45:22.950, 1583739922950
50, -25528.02, -30270.56, -19278.51, -15578.12, -18717.13, -20570.18, -23126.05, -21372.42, 0.000, 0.000, 0.000, 10:45:22.950, 1583739922950
51, -25512.44, -30256.97, -19287.01, -15574.02, -18724.12, -20558.15, -23099.46, -21382.97, 0.000, 0.000, 0.000, 10:45:22.950, 1583739922950
52, -24942.42, -30194.12, -19173.26, -15483.88, -18117.81, -20521.72, -22827.93, -21119.65, 0.000, 0.000, 0.000, 10:45:22.950, 1583739922950
53, -24677.76, -30178.52, -19094.45, -15404.31, -17746.93, -20491.01, -22728.84, -20965.06, 0.000, 0.000, 0.000, 10:45:22.951, 1583739922951
54, -25105.57, -30235.70, -19161.64, -15446.26, -18133.79, -20513.78, -22944.96, -21140.37, 0.000, 0.000, 0.000, 10:45:22.951, 1583739922951
55, -25522.74, -30270.27, -19277.98, -15580.10, -18711.11, -20574.04, -23125.70, -21374.91, 0.000, 0.000, 0.000, 10:45:22.951, 1583739922951
56, -25517.51, -30262.21, -19296.51, -15586.34, -18732.55, -20570.27, -23106.67, -21396.99, 0.000, 0.000, 0.000, 10:45:22.951, 1583739922951
57, -24946.83, -30199.80, -19179.63, -15494.25, -18121.25, -20531.44, -22829.24, -21132.57, 0.000, 0.000, 0.000, 10:45:22.951, 1583739922951
58, -24679.19, -30189.03, -19093.22, -15404.31, -17741.03, -20494.47, -22723.52, -20972.11, 0.000, 0.000, 0.000, 10:45:22.951, 1583739922951
59, -25105.21, -30242.38, -19158.33, -15437.52, -18124.00, -20511.37, -22938.95, -21141.49, 0.006, -0.016, 0.982, 10:45:22.952, 1583739922952
60, -25520.91, -30274.72, -19275.94, -15578.09, -18706.04, -20574.94, -23124.20, -21377.74, 0.000, 0.000, 0.000, 10:45:22.952, 1583739922952
61, -25518.79, -30262.85, -19285.38, -15581.42, -18724.44, -20569.24, -23104.68, -21397.75, 0.000, 0.000, 0.000, 10:45:22.952, 1583739922952
62, -24948.73, -30193.43, -19169.73, -15481.89, -18117.52, -20526.99, -22829.78, -21128.03, 0.000, 0.000, 0.000, 10:45:22.952, 1583739922952
63, -24677.24, -30184.06, -19097.58, -15407.21, -17746.44, -20497.69, -22730.29, -20968.57, 0.000, 0.000, 0.000, 10:45:22.953, 1583739922953
64, -25100.70, -30242.40, -19167.20, -15448.68, -18130.93, -20518.81, -22947.37, -21140.62, 0.000, 0.000, 0.000, 10:45:22.953, 1583739922953
65, -25518.20, -30273.40, -19285.51, -15587.59, -18712.81, -20580.48, -23130.26, -21373.50, 0.000, 0.000, 0.000, 10:45:22.953, 1583739922953
66, -25519.32, -30264.24, -19301.16, -15592.49, -18738.27, -20573.77, -23111.19, -21393.64, 0.000, 0.000, 0.000, 10:45:22.953, 1583739922953
67, -24953.08, -30193.50, -19175.25, -15482.76, -18125.14, -20524.96, -22831.66, -21123.20, 0.000, 0.000, 0.000, 10:45:22.953, 1583739922953
68, -24673.60, -30178.92, -19089.89, -15398.85, -17738.48, -20489.08, -22721.22, -20958.00, 0.000, 0.000, 0.000, 10:45:22.953, 1583739922953
69, -25097.19, -30238.87, -19157.43, -15441.52, -18118.30, -20512.73, -22938.03, -21131.49, 0.008, -0.020, 0.974, 10:45:22.953, 1583739922953
70, -25517.22, -30267.03, -19271.61, -15574.74, -18700.07, -20572.37, -23123.13, -21366.59, 0.000, 0.000, 0.000, 10:45:22.953, 1583739922953
71, -25518.67, -30257.73, -19292.28, -15583.57, -18730.13, -20569.46, -23107.88, -21393.30, 0.000, 0.000, 0.000, 10:45:22.953, 1583739922953
72, -24946.47, -30188.06, -19175.94, -15487.59, -18122.37, -20527.93, -22831.10, -21128.41, 0.000, 0.000, 0.000, 10:45:22.953, 1583739922953
73, -24675.83, -30190.50, -19095.79, -15409.20, -17739.57, -20497.20, -22725.38, -20969.53, 0.000, 0.000, 0.000, 10:45:22.954, 1583739922954
74, -25103.36, -30253.85, -19159.67, -15449.03, -18116.49, -20518.95, -22940.18, -21139.54, 0.000, 0.000, 0.000, 10:45:23.412, 1583739923412
75, -25522.12, -30284.91, -19278.92, -15592.60, -18699.33, -20586.67, -23126.10, -21379.91, 0.000, 0.000, 0.000, 10:45:23.413, 1583739923413
76, -25523.37, -30274.32, -19295.68, -15598.90, -18730.63, -20580.32, -23107.50, -21403.72, 0.000, 0.000, 0.000, 10:45:23.413, 1583739923413
