%OpenBCI Raw EEG Data
%Number of channels = 8
%Sample Rate = 250.0 Hz
%First Column = SampleIndex
%Last Column = Timestamp 
%Other Columns = EEG data in microvolts followed by Accel Data (in G) interleaved with Aux Data
0, 0.00, 0.00, 0.00, 0.00, 0.00, 0.00, 0.00, 0.00, 0.002, -0.018, 0.970, 10:44:01.958, 1583739841958
1, -25549.09, -30360.75, -19410.77, -15615.84, -18960.56, -20633.65, -23359.09, -21658.17, 0.000, 0.000, 0.000, 10:44:01.975, 1583739841975
2, -24928.25, -30289.68, -19290.43, -15525.19, -18337.75, -20596.04, -23055.42, -21365.16, 0.000, 0.000, 0.000, 10:44:02.455, 1583739842455
3, -24655.25, -30283.17, -19227.66, -15471.30, -18001.83, -20580.32, -22955.31, -21211.98, 0.000, 0.000, 0.000, 10:44:02.455, 1583739842455
4, -25115.87, -30340.48, -19308.35, -15523.89, -18428.57, -20606.16, -23192.28, -21410.71, 0.000, 0.000, 0.000, 10:44:02.455, 1583739842455
5, -25572.50, -30378.30, -19409.72, -15622.71, -18971.69, -20644.43, -23395.62, -21656.40, 0.000, 0.000, 0.000, 10:44:02.455, 1583739842455
6, -25547.89, -30374.19, -19412.24, -15616.69, -18959.62, -20636.81, -23358.38, -21661.12, 0.000, 0.000, 0.000, 10:44:02.456, 1583739842456
7, -24937.08, -30296.36, -19297.33, -15533.17, -18340.97, -20603.77, -23059.96, -21375.60, 0.000, 0.000, 0.000, 10:44:02.456, 1583739842456
8, -24663.67, -30271.84, -19235.55, -15486.27, -18004.96, -20590.52, -22960.07, -21223.96, 0.006, -0.020, 0.972, 10:44:02.456, 1583739842456
9, -25121.55, -30342.07, -19309.16, -15532.56, -18426.84, -20610.63, -23193.26, -21417.64, 0.000, 0.000, 0.000, 10:44:02.460, 1583739842460
10, -25565.86, -30380.71, -19403.41, -15625.88, -18962.21, -20642.95, -23391.35, -21656.54, 0.000, 0.000, 0.000, 10:44:02.460, 1583739842460
11, -25540.13, -30369.52, -19409.79, -15630.53, -18954.81, -20640.63, -23360.01, -21666.48, 0.000, 0.000, 0.000, 10:44:02.460, 1583739842460
12, -24933.66, -30299.31, -19300.39, -15558.62, -18346.33, -20615.17, -23068.43, -21388.29, 0.000, 0.000, 0.000, 10:44:02.460, 1583739842460
13, -24658.89, -30276.49, -19229.21, -15484.30, -18002.18, -20583.63, -22960.09, -21223.79, 0.000, 0.000, 0.000, 10:44:02.460, 1583739842460
14, -25112.21, -30340.17, -19301.56, -15516.78, -18422.02, -20597.62, -23192.42, -21411.32, 0.000, 0.000, 0.000, 10:44:02.461, 1583739842461
15, -25570.22, -30382.93, -19406.66, -15616.45, -18963.80, -20639.35, -23393.69, -21656.89, 0.000, 0.000, 0.000, 10:44:02.461, 1583739842461
16, -25542.43, -30365.09, -19413.36, -15615.40, -18957.43, -20633.48, -23357.46, -21663.64, 0.000, 0.000, 0.000, 10:44:02.461, 1583739842461
17, -24932.92, -30289.07, -19291.28, -15533.55, -18342.96, -20599.72, -23059.02, -21378.41, 0.000, 0.000, 0.000, 10:44:02.461, 1583739842461
18, -24665.02, -30269.60, -19225.07, -15483.19, -18006.56, -20582.85, -22958.19, -21223.92, 0.002, -0.020, 0.972, 10:44:02.461, 1583739842461
19, -25127.32, -30336.26, -19308.02, -15538.93, -18430.15, -20611.57, -23197.85, -21423.36, 0.000, 0.000, 0.000, 10:44:02.461, 1583739842461
20, -25569.14, -30384.71, -19409.16, -15639.89, -18967.06, -20653.19, -23396.55, -21665.17, 0.000, 0.000, 0.000, 10:44:02.462, 1583739842462
21, -25541.99, -30369.78, -19413.76, -15626.66, -18958.03, -20640.20, -23363.14, -21667.98, 0.000, 0.000, 0.000, 10:44:02.462, 1583739842462
22, -24938.76, -30296.74, -19296.39, -15533.55, -18348.81, -20600.62, -23067.25, -21381.01, 0.000, 0.000, 0.000, 10:44:02.462, 1583739842462
23, -24677.51, -30288.54, -19235.73, -15482.16, -18018.48, -20584.30, -22972.85, -21231.81, 0.000, 0.000, 0.000, 10:44:02.462, 1583739842462
24, -25130.83, -30353.04, -19309.25, -15532.85, -18437.55, -20608.67, -23206.03, -21427.52, 0.000, 0.000, 0.000, 10:44:02.462, 1583739842462
25, -25548.56, -30381.12, -19402.36, -15628.70, -18956.34, -20644.45, -23389.89, -21655.24, 0.000, 0.000, 0.000, 10:44:02.462, 1583739842462
26, -25529.69, -30368.17, -19409.63, -15623.89, -18948.49, -20635.93, -23359.29, -21662.19, 0.000, 0.000, 0.000, 10:44:02.463, 1583739842463
27, -24945.71, -30301.92, -19297.38, -15535.15, -18349.08, -20601.04, -23073.50, -21384.16, 0.000, 0.000, 0.000, 10:44:02.463, 1583739842463
28, -24684.39, -30289.27, -19234.14, -15473.78, -18021.36, -20579.45, -22979.52, -21232.95, 0.006, -0.020, 0.964, 10:44:02.463, 1583739842463
29, -25140.21, -30344.88, -19311.28, -15524.81, -18441.40, -20605.45, -23211.55, -21426.63, 0.000, 0.000, 0.000, 10:44:02.463, 1583739842463
30, -25553.65, -30363.50, -19398.41, -15622.39, -18953.45, -20640.74, -23387.48, -21648.65, 0.000, 0.000, 0.000, 10:44:02.463, 1583739842463
31, -25530.47, -30359.30, -19409.70, -15621.68, -18952.13, -20635.78, -23359.83, -21658.88, 0.000, 0.000, 0.000, 10:44:02.463, 1583739842463
32, -24944.86, -30299.44, -19294.12, -15527.44, -18350.98, -20595.08, -23072.07, -21377.54, 0.000, 0.000, 0.000, 10:44:02.464, 1583739842464
33, -24687.99, -30288.27, -19228.13, -15466.02, -18023.13, -20570.55, -22977.44, -21225.17, 0.000, 0.000, 0.000, 10:44:02.464, 1583739842464
34, -25134.85, -30343.32, -19307.30, -15519.06, -18442.29, -20595.95, -23209.38, -21416.88, 0.000, 0.000, 0.000, 10:44:02.465, 1583739842465
35, -25544.02, -30373.25, -19406.39, -15622.62, -18954.48, -20640.52, -23389.07, -21642.12, 0.000, 0.000, 0.000, 10:44:02.465, 1583739842465
36, -25522.27, -30364.17, -19423.82, -15628.96, -18959.73, -20642.04, -23365.78, -21658.24, 0.000, 0.000, 0.000, 10:44:02.466, 1583739842466
37, -24937.06, -30297.39, -19305.25, -15543.16, -18358.54, -20604.66, -23078.62, -21383.22, 0.000, 0.000, 0.000, 10:44:02.468, 1583739842468
38, -24689.98, -30287.24, -19243.82, -15493.51, -18032.13, -20587.99, -22988.37, -21238.87, 0.008, -0.018, 0.968, 10:44:02.468, 1583739842468
39, -25144.55, -30351.07, -19325.74, -15549.62, -18452.91, -20619.17, -23222.57, -21436.57, 0.000, 0.000, 0.000, 10:44:02.469, 1583739842469
40, -25543.77, -30374.90, -19416.31, -15646.44, -18960.13, -20658.33, -23395.37, -21657.90, 0.000, 0.000, 0.000, 10:44:02.469, 1583739842469
41, -25522.94, -30360.66, -19422.17, -15640.61, -18958.95, -20652.38, -23368.23, -21669.35, 0.000, 0.000, 0.000, 10:44:02.469, 1583739842469
42, -24947.25, -30294.17, -19310.81, -15550.24, -18366.32, -20616.22, -23086.00, -21395.89, 0.000, 0.000, 0.000, 10:44:02.470, 1583739842470
43, -24696.58, -30285.36, -19250.62, -15490.94, -18042.24, -20593.47, -22994.51, -21247.86, 0.000, 0.000, 0.000, 10:44:02.470, 1583739842470
44, -25144.13, -30341.66, -19318.32, -15539.04, -18448.50, -20615.33, -23219.21, -21436.95, 0.000, 0.000, 0.000, 10:44:02.470, 1583739842470
45, -25540.67, -30373.90, -19404.80, -15636.70, -18948.94, -20652.59, -23388.26, -21654.01, 0.000, 0.000, 0.000, 10:44:02.471, 1583739842471
46, -25525.71, -30368.93, -19409.63, -15634.51, -18947.48, -20644.12, -23358.04, -21660.85, 0.000, 0.000, 0.000, 10:44:02.471, 1583739842471
47, -24953.06, -30303.51, -19296.24, -15543.22, -18354.51, -20602.68, -23074.08, -21385.46, 0.000, 0.000, 0.000, 10:44:02.471, 1583739842471
48, -24704.82, -30298.28, -19239.64, -15483.08, -18032.87, -20580.93, -22986.31, -21240.10, 0.002, -0.020, 0.968, 10:44:02.472, 1583739842472
49, -25144.57, -30358.96, -19312.55, -15528.40, -18442.31, -20602.47, -23210.07, -21427.48, 0.000, 0.000, 0.000, 10:44:02.472, 1583739842472
50, -25532.71, -30372.42, -19393.71, -15614.46, -18936.04, -20632.78, -23372.86, -21638.75, 0.000, 0.000, 0.000, 10:44:02.472, 1583739842472
51, -25515.19, -30356.15, -19403.93, -15612.33, -18933.87, -20624.76, -23345.10, -21648.65, 0.000, 0.000, 0.000, 10:44:02.473, 1583739842473
52, -24942.98, -30291.84, -19295.46, -15530.77, -18346.20, -20589.38, -23065.86, -21377.83, 0.000, 0.000, 0.000, 10:44:02.473, 1583739842473
53, -24696.04, -30284.13, -19238.06, -15478.05, -18029.56, -20572.57, -22978.75, -21235.70, 0.000, 0.000, 0.000, 10:44:02.476, 1583739842476
54, -25145.49, -30335.56, -19317.40, -15530.35, -18447.72, -20600.55, -23210.86, -21426.65, 0.000, 0.000, 0.000, 10:44:02.477, 1583739842477
55, -25528.20, -30355.99, -19401.47, -15623.44, -18941.11, -20633.72, -23372.44, -21634.68, 0.000, 0.000, 0.000, 10:44:02.478, 1583739842478
56, -25508.57, -30353.98, -19403.71, -15619.00, -18937.72, -20624.67, -23342.06, -21644.15, 0.000, 0.000, 0.000, 10:44:02.478, 1583739842478
57, -24941.28, -30291.37, -19294.14, -15533.21, -18351.09, -20592.01, -23065.30, -21377.41, 0.000, 0.000, 0.000, 10:44:02.478, 1583739842478
58, -24700.71, -30280.71, -19236.58, -15482.61, -18029.30, -20576.03, -22977.84, -21235.86, 0.002, -0.022, 0.968, 10:44:02.479, 1583739842479
59, -25141.64, -30338.85, -19309.36, -15530.66, -18438.65, -20598.12, -23204.24, -21421.22, 0.000, 0.000, 0.000, 10:44:02.479, 1583739842479
60, -25523.03, -30363.50, -19391.01, -15619.26, -18928.93, -20631.38, -23370.18, -21632.00, 0.000, 0.000, 0.000, 10:44:02.480, 1583739842480
61, -25505.37, -30362.21, -19397.94, -15614.30, -18933.31, -20623.26, -23345.48, -21644.89, 0.000, 0.000, 0.000, 10:44:02.480, 1583739842480
62, -24941.57, -30300.89, -19290.20, -15531.38, -18351.88, -20590.96, -23069.08, -21378.48, 0.000, 0.000, 0.000, 10:44:02.480, 1583739842480
63, -24695.68, -30281.49, -19234.32, -15484.84, -18029.41, -20579.07, -22981.15, -21239.50, 0.000, 0.000, 0.000, 10:44:02.485, 1583739842485
64, -25142.22, -30340.37, -19310.70, -15534.39, -18439.50, -20604.93, -23210.59, -21430.34, 0.000, 0.000, 0.000, 10:44:02.485, 1583739842485
65, -25524.46, -30354.83, -19389.22, -15614.93, -18928.84, -20631.71, -23372.71, -21636.80, 0.000, 0.000, 0.000, 10:44:02.486, 1583739842486
66, -25508.95, -30350.70, -19395.66, -15606.48, -18930.16, -20620.02, -23345.64, -21646.19, 0.000, 0.000, 0.000, 10:44:02.487, 1583739842487
67, -24942.04, -30291.22, -19284.55, -15520.98, -18342.27, -20584.14, -23065.10, -21376.00, 0.000, 0.000, 0.000, 10:44:02.488, 1583739842488
68, -24695.86, -30290.93, -19227.17, -15469.73, -18020.89, -20570.35, -22978.31, -21234.38, 0.000, 0.000, 0.000, 10:44:02.488, 1583739842488
69, -25136.97, -30343.65, -19303.55, -15521.68, -18430.87, -20595.48, -23204.44, -21421.04, 0.002, -0.020, 0.964, 10:44:02.488, 1583739842488
70, -25521.60, -30364.13, -19398.14, -15624.79, -18934.88, -20638.75, -23373.08, -21639.01, 0.000, 0.000, 0.000, 10:44:02.489, 1583739842489
71, -25511.07, -30354.70, -19410.19, -15625.54, -18943.35, -20633.90, -23349.28, -21655.42, 0.000, 0.000, 0.000, 10:44:02.489, 1583739842489
72, -24949.62, -30295.04, -19299.08, -15536.25, -18356.10, -20595.90, -23070.84, -21386.26, 0.000, 0.000, 0.000, 10:44:02.489, 1583739842489
73, -24694.86, -30284.76, -19229.47, -15465.19, -18024.27, -20567.61, -22974.71, -21235.81, 0.000, 0.000, 0.000, 10:44:02.490, 1583739842490
74, -25135.54, -30340.62, -19302.00, -15514.84, -18432.12, -20594.14, -23202.43, -21425.80, 0.000, 0.000, 0.000, 10:44:02.490, 1583739842490
75, -25522.27, -30365.43, -19391.08, -15619.89, -18929.96, -20638.93, -23371.43, -21643.39, 0.000, 0.000, 0.000, 10:44:02.490, 1583739842490
76, -25514.13, -30347.68, -19400.17, -15619.80, -18937.38, -20634.39, -23347.36, -21659.00, 0.000, 0.000, 0.000, 10:44:02.491, 1583739842491
77, -24942.62, -30291.89, -19291.28, -15534.71, -18355.65, -20598.83, -23071.20, -21392.47, 0.000, 0.000, 0.000, 10:44:02.491, 1583739842491
78, -24689.49, -30283.28, -19235.11, -15487.41, -18034.50, -20584.55, -22981.79, -21249.85, 0.000, 0.000, 0.000, 10:44:02.491, 1583739842491
79, -25139.61, -30343.32, -19317.70, -15545.26, -18444.01, -20615.21, -23211.88, -21440.08, 0.006, -0.030, 0.970, 10:44:02.492, 1583739842492
80, -25521.60, -30371.64, -19404.76, -15639.18, -18941.11, -20651.83, -23378.02, -21649.97, 0.000, 0.000, 0.000, 10:44:02.493, 1583739842493
81, -25505.66, -30356.15, -19404.64, -15627.36, -18944.96, -20637.34, -23349.88, -21659.69, 0.000, 0.000, 0.000, 10:44:02.493, 1583739842493
82, -24951.43, -30288.87, -19291.59, -15533.84, -18360.24, -20598.56, -23073.62, -21392.96, 0.000, 0.000, 0.000, 10:44:02.493, 1583739842493
83, -24707.84, -30283.66, -19231.91, -15475.88, -18030.84, -20579.85, -22985.46, -21247.77, 0.000, 0.000, 0.000, 10:44:02.494, 1583739842494
84, -25152.33, -30349.55, -19312.67, -15528.34, -18440.10, -20608.80, -23216.42, -21437.49, 0.000, 0.000, 0.000, 10:44:02.494, 1583739842494
85, -25532.96, -30373.16, -19398.34, -15626.93, -18939.55, -20647.11, -23381.35, -21650.28, 0.000, 0.000, 0.000, 10:44:02.494, 1583739842494
86, -25524.95, -30366.45, -19405.72, -15622.55, -18950.41, -20637.12, -23359.56, -21664.20, 0.000, 0.000, 0.000, 10:44:02.495, 1583739842495
87, -24959.92, -30305.16, -19293.51, -15528.96, -18364.21, -20595.39, -23082.96, -21395.00, 0.000, 0.000, 0.000, 10:44:02.495, 1583739842495
88, -24710.08, -30290.05, -19230.84, -15474.13, -18035.26, -20576.93, -22993.37, -21250.29, 0.000, 0.000, 0.000, 10:44:02.495, 1583739842495
89, -25146.99, -30343.30, -19307.48, -15526.30, -18437.98, -20602.18, -23217.49, -21436.04, 0.006, -0.022, 0.970, 10:44:02.496, 1583739842496
90, -25530.25, -30370.41, -19394.50, -15624.76, -18933.13, -20641.34, -23381.24, -21646.57, 0.000, 0.000, 0.000, 10:44:02.496, 1583739842496
91, -25523.54, -30366.23, -19407.13, -15624.94, -18947.28, -20637.21, -23360.30, -21663.11, 0.000, 0.000, 0.000, 10:44:02.496, 1583739842496
92, -24959.86, -30300.74, -19299.66, -15542.44, -18364.17, -20603.03, -23084.28, -21398.69, 0.000, 0.000, 0.000, 10:44:02.497, 1583739842497
93, -24706.70, -30293.16, -19238.39, -15484.89, -18032.45, -20583.81, -22991.16, -21251.61, 0.000, 0.000, 0.000, 10:44:02.497, 1583739842497
94, -25149.18, -30355.03, -19309.76, -15521.92, -18432.90, -20600.46, -23211.57, -21432.93, 0.000, 0.000, 0.000, 10:44:02.498, 1583739842498
95, -25527.55, -30369.85, -19387.37, -15611.49, -18921.85, -20632.60, -23368.01, -21639.71, 0.000, 0.000, 0.000, 10:44:02.498, 1583739842498
96, -25521.58, -30358.27, -19399.95, -15615.87, -18936.96, -20629.27, -23346.33, -21657.57, 0.000, 0.000, 0.000, 10:44:02.499, 1583739842499
97, -24961.02, -30292.69, -19296.84, -15538.95, -18361.42, -20600.24, -23075.85, -21397.41, 0.000, 0.000, 0.000, 10:44:02.499, 1583739842499
98, -24707.64, -30279.73, -19233.70, -15485.49, -18028.22, -20583.38, -22983.43, -21251.05, 0.000, 0.000, 0.000, 10:44:02.500, 1583739842500
99, -25142.61, -30345.22, -19308.93, -15527.47, -18432.90, -20606.99, -23210.03, -21435.48, 0.004, -0.024, 0.968, 10:44:02.500, 1583739842500
100, -25522.83, -30371.93, -19392.87, -15615.82, -18928.87, -20641.81, -23371.63, -21645.12, 0.000, 0.000, 0.000, 10:44:02.501, 1583739842501
101, -25516.33, -30361.27, -19402.74, -15615.75, -18942.25, -20634.86, -23350.75, -21661.86, 0.000, 0.000, 0.000, 10:44:02.501, 1583739842501
102, -24960.24, -30307.91, -19301.89, -15543.42, -18369.31, -20606.94, -23082.40, -21403.45, 0.000, 0.000, 0.000, 10:44:02.501, 1583739842501
103, -24701.72, -30299.11, -19246.68, -15490.85, -18041.19, -20590.87, -22991.76, -21257.71, 0.000, 0.000, 0.000, 10:44:02.502, 1583739842502
104, -25135.83, -30355.52, -19313.90, -15522.39, -18437.10, -20604.08, -23212.15, -21433.80, 0.000, 0.000, 0.000, 10:44:02.502, 1583739842502
105, -25515.86, -30367.79, -19387.52, -15604.11, -18925.42, -20631.15, -23368.88, -21635.33, 0.000, 0.000, 0.000, 10:44:02.502, 1583739842502
106, -25513.13, -30359.97, -19395.97, -15601.38, -18937.22, -20622.23, -23348.56, -21651.89, 0.000, 0.000, 0.000, 10:44:02.503, 1583739842503
107, -24957.64, -30296.92, -19289.58, -15517.07, -18360.10, -20587.52, -23075.96, -21390.64, 0.000, 0.000, 0.000, 10:44:02.503, 1583739842503
108, -24704.42, -30288.69, -19232.27, -15465.57, -18027.82, -20572.05, -22983.63, -21245.64, 0.000, 0.000, 0.000, 10:44:02.504, 1583739842504
109, -25141.96, -30340.30, -19308.26, -15514.55, -18427.98, -20595.05, -23207.39, -21428.04, 0.006, -0.022, 0.972, 10:44:02.504, 1583739842504
110, -25520.42, -30361.51, -19397.07, -15616.13, -18927.17, -20636.13, -23371.45, -21640.00, 0.000, 0.000, 0.000, 10:44:02.504, 1583739842504
111, -25517.22, -30346.18, -19407.84, -15623.04, -18946.66, -20635.33, -23355.52, -21663.24, 0.000, 0.000, 0.000, 10:44:02.504, 1583739842504
112, -24957.51, -30293.88, -19291.46, -15531.82, -18361.60, -20594.25, -23081.44, -21397.97, 0.000, 0.000, 0.000, 10:44:02.504, 1583739842504
113, -24698.65, -30292.45, -19228.58, -15472.70, -18027.29, -20571.03, -22986.40, -21245.58, 0.000, 0.000, 0.000, 10:44:02.505, 1583739842505
114, -25133.73, -30353.87, -19301.29, -15516.71, -18424.68, -20594.09, -23207.86, -21427.99, 0.000, 0.000, 0.000, 10:44:02.505, 1583739842505
115, -25511.86, -30372.22, -19376.91, -15606.12, -18914.52, -20627.33, -23364.61, -21636.82, 0.000, 0.000, 0.000, 10:44:02.505, 1583739842505
116, -25504.84, -30362.52, -19384.26, -15605.23, -18929.11, -20620.02, -23342.84, -21654.91, 0.000, 0.000, 0.000, 10:44:02.505, 1583739842505
117, -24958.36, -30297.41, -19281.82, -15520.87, -18353.89, -20587.50, -23073.08, -21393.95, 0.000, 0.000, 0.000, 10:44:02.505, 1583739842505
118, -24701.29, -30278.77, -19222.48, -15462.74, -18017.12, -20568.66, -22980.95, -21245.82, 0.000, 0.000, 0.000, 10:44:02.505, 1583739842505
119, -25135.85, -30343.47, -19300.93, -15518.32, -18418.33, -20597.53, -23205.83, -21432.60, 0.004, -0.020, 0.974, 10:44:02.506, 1583739842506
120, -25517.46, -30364.66, -19387.34, -15624.05, -18920.21, -20640.65, -23370.38, -21645.96, 0.000, 0.000, 0.000, 10:44:02.506, 1583739842506
121, -25516.86, -30352.77, -19401.16, -15622.15, -18943.93, -20635.22, -23356.16, -21666.48, 0.000, 0.000, 0.000, 10:44:02.506, 1583739842506
122, -24957.49, -30288.00, -19295.39, -15528.25, -18369.63, -20596.39, -23084.95, -21401.77, 0.000, 0.000, 0.000, 10:44:02.935, 1583739842935
123, -24693.67, -30270.38, -19236.63, -15470.60, -18033.81, -20576.75, -22990.00, -21251.72, 0.000, 0.000, 0.000, 10:44:02.936, 1583739842936
124, -25128.08, -30340.64, -19310.36, -15519.15, -18430.09, -20602.27, -23213.07, -21435.59, 0.000, 0.000, 0.000, 10:44:02.936, 1583739842936
125, -25509.22, -30367.04, -19384.66, -15610.06, -18920.35, -20635.62, -23368.37, -21643.06, 0.000, 0.000, 0.000, 10:44:02.936, 1583739842936
126, -25508.44, -30359.79, -19392.51, -15608.31, -18937.04, -20626.84, -23346.98, -21661.66, 0.000, 0.000, 0.000, 10:44:02.936, 1583739842936
127, -24959.66, -30302.91, -19288.68, -15523.04, -18362.65, -20590.58, -23078.89, -21400.07, 0.000, 0.000, 0.000, 10:44:02.936, 1583739842936
128, -24703.30, -30291.89, -19231.28, -15464.21, -18027.87, -20570.76, -22988.59, -21250.18, 0.000, 0.000, 0.000, 10:44:02.937, 1583739842937
129, -25133.66, -30340.08, -19302.29, -15506.88, -18421.50, -20589.51, -23208.42, -21427.30, 0.002, -0.024, 0.974, 10:44:02.937, 1583739842937
130, -25516.50, -30370.81, -19384.64, -15607.42, -18915.21, -20627.06, -23367.68, -21636.38, 0.000, 0.000, 0.000, 10:44:02.937, 1583739842937
131, -25522.72, -30369.40, -19398.01, -15614.35, -18937.16, -20622.90, -23351.34, -21657.70, 0.000, 0.000, 0.000, 10:44:02.937, 1583739842937
132, -24965.04, -30290.05, -19293.44, -15529.21, -18363.32, -20587.03, -23083.58, -21396.47, 0.000, 0.000, 0.000, 10:44:02.937, 1583739842937
133, -24698.68, -30274.97, -19227.82, -15464.32, -18022.12, -20562.02, -22985.39, -21241.46, 0.000, 0.000, 0.000, 10:44:02.937, 1583739842937
134, -25131.54, -30343.52, -19296.01, -15503.17, -18414.84, -20581.17, -23206.03, -21419.25, 0.000, 0.000, 0.000, 10:44:02.938, 1583739842938
135, -25514.94, -30365.65, -19373.64, -15600.22, -18908.03, -20617.94, -23365.78, -21628.53, 0.000, 0.000, 0.000, 10:44:02.938, 1583739842938
136, -25516.84, -30357.94, -19380.82, -15595.68, -18929.76, -20607.99, -23347.56, -21647.60, 0.000, 0.000, 0.000, 10:44:02.938, 1583739842938
137, -24957.13, -30293.74, -19277.84, -15510.79, -18358.54, -20573.01, -23077.86, -21388.67, 0.000, 0.000, 0.000, 10:44:02.938, 1583739842938
138, -24691.05, -30287.64, -19217.85, -15456.14, -18018.46, -20556.12, -22985.24, -21240.93, 0.000, 0.000, 0.000, 10:44:02.938, 1583739842938
139, -25123.94, -30341.44, -19285.40, -15494.83, -18406.71, -20574.53, -23203.66, -21417.98, 0.002, -0.020, 0.974, 10:44:02.939, 1583739842939
140, -25506.83, -30361.60, -19370.11, -15599.01, -18904.19, -20618.08, -23363.96, -21632.55, 0.000, 0.000, 0.000, 10:44:02.939, 1583739842939
141, -25514.11, -30364.93, -19381.96, -15603.13, -18932.22, -20615.30, -23347.38, -21658.68, 0.000, 0.000, 0.000, 10:44:02.939, 1583739842939
142, -24968.78, -30305.77, -19278.78, -15510.03, -18361.53, -20578.71, -23081.62, -21399.18, 0.000, 0.000, 0.000, 10:44:02.939, 1583739842939
143, -24700.80, -30282.32, -19218.07, -15453.39, -18017.16, -20559.56, -22985.35, -21248.06, 0.000, 0.000, 0.000, 10:44:02.939, 1583739842939
144, -25136.28, -30342.58, -19298.99, -15511.46, -18417.77, -20593.44, -23212.58, -21437.83, 0.000, 0.000, 0.000, 10:44:02.939, 1583739842939
145, -25517.20, -30366.77, -19382.29, -15610.93, -18917.94, -20634.39, -23374.00, -21649.54, 0.000, 0.000, 0.000, 10:44:02.940, 1583739842940
146, -25517.40, -30357.18, -19395.59, -15609.14, -18946.28, -20629.94, -23362.27, -21672.61, 0.000, 0.000, 0.000, 10:44:02.940, 1583739842940
147, -24956.84, -30291.33, -19289.13, -15520.07, -18374.63, -20592.95, -23091.63, -21410.20, 0.000, 0.000, 0.000, 10:44:02.940, 1583739842940
148, -24693.51, -30287.08, -19226.77, -15468.79, -18030.77, -20577.11, -22992.48, -21258.65, 0.000, 0.000, 0.000, 10:44:02.941, 1583739842941
149, -25124.54, -30347.25, -19302.00, -15519.84, -18423.69, -20602.36, -23210.97, -21439.05, 0.008, -0.016, 0.972, 10:44:02.941, 1583739842941
150, -25502.45, -30364.33, -19379.95, -15610.17, -18916.93, -20634.66, -23364.41, -21644.18, 0.000, 0.000, 0.000, 10:44:02.941, 1583739842941
151, -25512.35, -30359.64, -19394.41, -15613.01, -18945.54, -20630.35, -23352.86, -21670.33, 0.000, 0.000, 0.000, 10:44:02.942, 1583739842942
152, -24961.31, -30294.90, -19289.26, -15527.17, -18372.44, -20593.40, -23084.90, -21408.23, 0.000, 0.000, 0.000, 10:44:02.942, 1583739842942
153, -24693.54, -30283.75, -19231.71, -15472.19, -18030.86, -20575.63, -22987.36, -21254.36, 0.000, 0.000, 0.000, 10:44:02.942, 1583739842942
154, -25125.95, -30341.44, -19305.34, -15522.50, -18422.82, -20602.90, -23209.45, -21436.30, 0.000, 0.000, 0.000, 10:44:02.942, 1583739842942
155, -25508.37, -30352.35, -19381.49, -15616.76, -18914.85, -20636.92, -23368.73, -21643.26, 0.000, 0.000, 0.000, 10:44:02.942, 1583739842942
156, -25515.50, -30349.60, -19386.47, -15605.90, -18938.16, -20619.89, -23352.48, -21659.55, 0.000, 0.000, 0.000, 10:44:02.943, 1583739842943
157, -24967.37, -30296.47, -19277.87, -15514.77, -18361.38, -20577.19, -23080.39, -21396.34, 0.000, 0.000, 0.000, 10:44:02.943, 1583739842943
158, -24695.39, -30288.31, -19216.33, -15453.64, -18016.09, -20555.00, -22982.13, -21241.60, 0.000, 0.000, 0.000, 10:44:02.943, 1583739842943
159, -25118.71, -30343.07, -19284.01, -15486.72, -18402.35, -20570.55, -23198.99, -21414.56, 0.004, -0.018, 0.974, 10:44:02.943, 1583739842943
160, -25502.27, -30367.77, -19366.45, -15587.97, -18901.28, -20610.39, -23359.05, -21625.60, 0.000, 0.000, 0.000, 10:44:02.943, 1583739842943
161, -25515.77, -30364.38, -19381.91, -15595.66, -18937.29, -20607.88, -23348.45, -21653.63, 0.000, 0.000, 0.000, 10:44:02.943, 1583739842943
162, -24969.65, -30293.03, -19278.18, -15512.36, -18368.35, -20575.03, -23083.18, -21398.38, 0.000, 0.000, 0.000, 10:44:02.944, 1583739842944
163, -24691.68, -30277.94, -19218.30, -15458.82, -18022.28, -20557.88, -22984.32, -21245.91, 0.000, 0.000, 0.000, 10:44:02.944, 1583739842944
164, -25120.99, -30341.89, -19292.62, -15504.00, -18414.28, -20581.53, -23207.73, -21424.30, 0.000, 0.000, 0.000, 10:44:02.944, 1583739842944
165, -25510.60, -30363.48, -19370.67, -15599.17, -18909.82, -20618.75, -23366.24, -21634.68, 0.000, 0.000, 0.000, 10:44:02.944, 1583739842944
166, -25518.49, -30347.16, -19379.12, -15594.79, -18937.38, -20607.26, -23348.34, -21656.58, 0.000, 0.000, 0.000, 10:44:02.944, 1583739842944
167, -24969.69, -30283.06, -19280.93, -15512.22, -18371.21, -20575.76, -23083.74, -21402.85, 0.000, 0.000, 0.000, 10:44:02.944, 1583739842944
168, -24692.78, -30275.01, -19224.71, -15459.02, -18028.89, -20563.29, -22988.86, -21253.76, 0.000, 0.000, 0.000, 10:44:02.945, 1583739842945
169, -25119.83, -30340.30, -19299.95, -15508.38, -18417.21, -20593.98, -23213.83, -21436.84, 0.000, 0.000, 0.000, 10:44:02.949, 1583739842949
170, -25506.20, -30374.66, -19387.43, -15613.01, -18922.58, -20640.58, -23379.03, -21655.31, 0.000, -0.016, 0.978, 10:44:02.950, 1583739842950
171, -25516.35, -30373.70, -19397.69, -15614.64, -18959.89, -20635.17, -23365.66, -21683.11, 0.000, 0.000, 0.000, 10:44:02.950, 1583739842950
172, -24970.79, -30305.66, -19293.62, -15531.31, -18392.13, -20600.87, -23100.10, -21426.00, 0.000, 0.000, 0.000, 10:44:02.950, 1583739842950
173, -24698.95, -30284.69, -19228.33, -15471.45, -18040.72, -20581.11, -22999.30, -21270.41, 0.000, 0.000, 0.000, 10:44:02.950, 1583739842950
174, -25124.63, -30340.68, -19298.65, -15512.51, -18424.95, -20603.52, -23218.34, -21446.05, 0.000, 0.000, 0.000, 10:44:02.950, 1583739842950
175, -25511.25, -30367.95, -19382.85, -15612.40, -18925.49, -20642.62, -23377.24, -21654.79, 0.000, 0.000, 0.000, 10:44:02.951, 1583739842951
176, -25518.31, -30362.59, -19395.93, -15616.09, -18956.54, -20634.26, -23360.79, -21677.39, 0.000, 0.000, 0.000, 10:44:02.951, 1583739842951
177, -24965.18, -30297.32, -19285.46, -15524.87, -18381.36, -20591.90, -23088.21, -21414.00, 0.000, 0.000, 0.000, 10:44:02.951, 1583739842951
178, -24694.56, -30281.85, -19219.84, -15460.97, -18027.96, -20568.16, -22987.00, -21255.14, 0.000, 0.000, 0.000, 10:44:02.951, 1583739842951
179, -25117.26, -30335.29, -19291.30, -15503.55, -18411.49, -20586.78, -23202.32, -21428.57, 0.000, 0.000, 0.000, 10:44:02.951, 1583739842951
180, -25500.32, -30368.84, -19367.52, -15593.34, -18906.54, -20618.12, -23357.82, -21632.67, 0.006, -0.020, 0.974, 10:44:02.951, 1583739842951
181, -25516.39, -30362.16, -19380.21, -15597.14, -18943.77, -20611.37, -23348.01, -21657.54, 0.000, 0.000, 0.000, 10:44:02.951, 1583739842951
182, -24968.26, -30297.16, -19274.69, -15505.74, -18373.98, -20569.91, -23081.44, -21396.36, 0.000, 0.000, 0.000, 10:44:02.952, 1583739842952
183, -24690.56, -30284.42, -19209.07, -15441.52, -18017.18, -20545.19, -22977.53, -21236.44, 0.000, 0.000, 0.000, 10:44:02.952, 1583739842952
184, -25113.53, -30345.91, -19282.22, -15489.45, -18403.00, -20570.22, -23200.04, -21414.83, 0.000, 0.000, 0.000, 10:44:02.952, 1583739842952
185, -25499.18, -30365.00, -19361.17, -15591.64, -18900.59, -20610.86, -23358.20, -21626.83, 0.000, 0.000, 0.000, 10:44:02.952, 1583739842952
186, -25521.94, -30356.78, -19376.14, -15593.54, -18936.67, -20606.65, -23347.22, -21655.78, 0.000, 0.000, 0.000, 10:44:02.952, 1583739842952
187, -24973.76, -30295.89, -19276.12, -15511.82, -18372.84, -20574.82, -23082.96, -21403.22, 0.000, 0.000, 0.000, 10:44:02.952, 1583739842952
188, -24697.98, -30290.05, -19216.67, -15457.79, -18021.88, -20560.01, -22983.45, -21250.88, 0.000, 0.000, 0.000, 10:44:02.953, 1583739842953
189, -25120.43, -30336.23, -19289.82, -15503.77, -18406.13, -20585.75, -23204.44, -21430.11, 0.000, 0.000, 0.000, 10:44:02.953, 1583739842953
190, -25506.29, -30367.88, -19370.89, -15609.56, -18908.14, -20629.77, -23365.95, -21647.53, 0.000, -0.022, 0.974, 10:44:02.953, 1583739842953
191, -25521.62, -30368.46, -19380.30, -15612.74, -18945.58, -20623.87, -23352.56, -21675.65, 0.000, 0.000, 0.000, 10:44:02.953, 1583739842953
192, -24974.59, -30295.58, -19271.92, -15511.13, -18373.80, -20579.16, -23083.52, -21412.19, 0.000, 0.000, 0.000, 10:44:02.953, 1583739842953
193, -24694.29, -30283.01, -19207.46, -15445.32, -18015.93, -20553.54, -22980.81, -21251.23, 0.000, 0.000, 0.000, 10:44:02.954, 1583739842954
194, -25115.20, -30344.93, -19275.16, -15487.93, -18395.15, -20573.28, -23197.04, -21424.37, 0.000, 0.000, 0.000, 10:44:02.954, 1583739842954
195, -25502.71, -30369.96, -19359.78, -15588.53, -18896.59, -20613.58, -23357.73, -21635.50, 0.000, 0.000, 0.000, 10:44:02.954, 1583739842954
196, -25524.57, -30367.12, -19381.69, -15602.32, -18944.94, -20616.49, -23353.15, -21669.95, 0.000, 0.000, 0.000, 10:44:02.954, 1583739842954
197, -24970.83, -30297.16, -19276.35, -15516.85, -18379.10, -20580.14, -23086.49, -21411.32, 0.000, 0.000, 0.000, 10:44:02.954, 1583739842954
198, -24691.14, -30282.08, -19214.99, -15455.60, -18023.80, -20561.57, -22985.42, -21254.03, 0.000, 0.000, 0.000, 10:44:02.954, 1583739842954
199, -25118.46, -30342.25, -19297.58, -15507.51, -18414.15, -20591.10, -23212.31, -21435.48, 0.000, 0.000, 0.000, 10:44:02.954, 1583739842954
200, -25500.23, -30360.06, -19379.70, -15608.78, -18915.70, -20629.38, -23372.99, -21645.45, -0.004, -0.020, 0.976, 10:44:02.954, 1583739842954
201, -25512.86, -30342.92, -19387.88, -15597.70, -18951.57, -20614.54, -23359.79, -21666.15, 0.000, 0.000, 0.000, 10:44:02.955, 1583739842955
202, -24970.99, -30284.53, -19278.49, -15511.26, -18384.18, -20577.78, -23093.62, -21410.20, 0.000, 0.000, 0.000, 10:44:02.955, 1583739842955
203, -24692.08, -30285.41, -19214.12, -15456.63, -18029.32, -20560.68, -22991.72, -21253.98, 0.000, 0.000, 0.000, 10:44:02.955, 1583739842955
204, -25118.02, -30349.31, -19293.38, -15512.40, -18418.48, -20594.81, -23215.62, -21438.07, 0.000, 0.000, 0.000, 10:44:02.955, 1583739842955
205, -25508.77, -30372.44, -19378.76, -15610.06, -18920.08, -20636.70, -23376.79, -21652.63, 0.000, 0.000, 0.000, 10:44:02.955, 1583739842955
206, -25529.47, -30375.51, -19398.68, -15619.44, -18965.88, -20635.60, -23370.34, -21685.26, 0.000, 0.000, 0.000, 10:44:02.955, 1583739842955
207, -24982.59, -30310.37, -19290.87, -15529.46, -18395.08, -20593.76, -23101.87, -21424.15, 0.000, 0.000, 0.000, 10:44:02.955, 1583739842955
208, -24695.08, -30284.27, -19216.11, -15456.23, -18024.02, -20562.08, -22990.60, -21255.88, 0.000, 0.000, 0.000, 10:44:02.956, 1583739842956
209, -25112.77, -30342.40, -19282.60, -15495.66, -18398.70, -20580.57, -23206.70, -21427.99, 0.000, 0.000, 0.000, 10:44:02.956, 1583739842956
210, -25500.48, -30364.89, -19365.53, -15599.66, -18901.21, -20621.76, -23366.07, -21641.16, 0.000, -0.020, 0.972, 10:44:02.956, 1583739842956
211, -25521.31, -30358.90, -19376.35, -15596.29, -18942.63, -20611.24, -23354.22, -21666.15, 0.000, 0.000, 0.000, 10:44:02.956, 1583739842956
212, -24978.19, -30289.34, -19270.64, -15503.93, -18378.10, -20568.70, -23087.54, -21407.00, 0.000, 0.000, 0.000, 10:44:02.956, 1583739842956
213, -24689.00, -30279.79, -19200.97, -15441.72, -18010.88, -20544.74, -22976.41, -21243.81, 0.000, 0.000, 0.000, 10:44:02.957, 1583739842957
214, -25114.11, -30346.29, -19273.66, -15487.43, -18389.76, -20568.28, -23195.03, -21419.16, 0.000, 0.000, 0.000, 10:44:02.957, 1583739842957
215, -25506.87, -30377.70, -19363.96, -15598.25, -18899.43, -20614.28, -23360.50, -21637.47, 0.000, 0.000, 0.000, 10:44:02.957, 1583739842957
216, -25526.36, -30364.46, -19384.79, -15606.32, -18948.74, -20611.08, -23354.33, -21667.49, 0.000, 0.000, 0.000, 10:44:02.957, 1583739842957
217, -24981.63, -30291.91, -19278.63, -15514.59, -18382.88, -20573.48, -23088.32, -21411.21, 0.000, 0.000, 0.000, 10:44:02.957, 1583739842957
218, -24690.90, -30274.36, -19212.08, -15453.37, -18020.51, -20554.64, -22981.37, -21251.59, 0.000, 0.000, 0.000, 10:44:02.957, 1583739842957
219, -25116.86, -30339.12, -19285.20, -15501.78, -18401.81, -20581.33, -23203.50, -21429.60, 0.000, 0.000, 0.000, 10:44:02.957, 1583739842957
220, -25508.12, -30370.77, -19366.31, -15604.24, -18903.72, -20622.30, -23364.01, -21643.78, -0.002, -0.024, 0.970, 10:44:02.958, 1583739842958
221, -25535.24, -30364.15, -19384.35, -15605.61, -18951.06, -20619.08, -23360.90, -21678.44, 0.000, 0.000, 0.000, 10:44:02.958, 1583739842958
222, -24993.59, -30295.93, -19283.72, -15513.32, -18393.63, -20581.98, -23101.24, -21423.19, 0.000, 0.000, 0.000, 10:44:02.958, 1583739842958
223, -24699.82, -30291.46, -19225.52, -15457.42, -18035.96, -20566.24, -22997.02, -21263.44, 0.000, 0.000, 0.000, 10:44:02.958, 1583739842958
224, -25117.71, -30353.85, -19301.38, -15507.59, -18417.28, -20594.70, -23217.45, -21441.02, 0.000, 0.000, 0.000, 10:44:02.958, 1583739842958
225, -25512.59, -30367.30, -19380.55, -15606.14, -18919.05, -20634.46, -23378.78, -21653.47, 0.000, 0.000, 0.000, 10:44:02.958, 1583739842958
226, -25543.55, -30371.37, -19398.38, -15612.20, -18971.94, -20632.02, -23375.39, -21687.83, 0.000, 0.000, 0.000, 10:44:02.958, 1583739842958
227, -25006.57, -30320.63, -19296.97, -15530.30, -18411.31, -20599.46, -23114.21, -21435.70, 0.000, 0.000, 0.000, 10:44:02.958, 1583739842958
228, -24712.40, -30299.26, -19230.10, -15472.88, -18044.50, -20580.05, -23003.79, -21273.25, 0.000, 0.000, 0.000, 10:44:02.959, 1583739842959
229, -25128.14, -30353.24, -19304.40, -15520.09, -18421.84, -20603.86, -23221.83, -21448.69, 0.000, 0.000, 0.000, 10:44:02.959, 1583739842959
230, -25514.56, -30379.33, -19383.39, -15608.02, -18923.05, -20635.29, -23379.90, -21654.01, 0.000, -0.020, 0.972, 10:44:02.959, 1583739842959
231, -25535.79, -30370.70, -19391.43, -15601.34, -18967.22, -20621.70, -23369.53, -21678.42, 0.000, 0.000, 0.000, 10:44:02.959, 1583739842959
232, -24999.75, -30311.71, -19285.49, -15514.86, -18403.33, -20585.60, -23107.46, -21423.74, 0.000, 0.000, 0.000, 10:44:02.959, 1583739842959
233, -24697.29, -30286.86, -19220.64, -15454.71, -18034.97, -20564.45, -22994.04, -21258.39, 0.000, 0.000, 0.000, 10:44:02.959, 1583739842959
234, -25111.71, -30340.77, -19291.86, -15499.91, -18407.04, -20587.14, -23209.31, -21431.72, 0.000, 0.000, 0.000, 10:44:02.959, 1583739842959
235, -25501.24, -30370.25, -19368.17, -15601.36, -18904.05, -20624.02, -23366.42, -21642.03, 0.000, 0.000, 0.000, 10:44:02.959, 1583739842959
236, -25527.81, -30357.63, -19378.78, -15597.96, -18948.45, -20613.20, -23356.28, -21668.74, 0.000, 0.000, 0.000, 10:44:02.959, 1583739842959
237, -24991.98, -30295.20, -19271.49, -15509.58, -18384.11, -20576.10, -23092.23, -21414.45, 0.000, 0.000, 0.000, 10:44:02.960, 1583739842960
238, -24692.37, -30275.73, -19207.88, -15453.68, -18016.67, -20556.18, -22981.24, -21251.37, 0.000, 0.000, 0.000, 10:44:02.960, 1583739842960
239, -25104.61, -30340.84, -19282.49, -15501.31, -18391.53, -20581.42, -23198.32, -21425.64, 0.000, 0.000, 0.000, 10:44:02.960, 1583739842960
240, -25496.21, -30369.45, -19364.48, -15602.84, -18896.05, -20622.86, -23362.22, -21642.54, 0.002, -0.020, 0.972, 10:44:02.960, 1583739842960
241, -25517.67, -30352.64, -19374.54, -15605.96, -18945.23, -20615.86, -23351.13, -21673.35, 0.000, 0.000, 0.000, 10:44:02.960, 1583739842960
242, -24977.29, -30290.10, -19274.27, -15518.84, -18386.41, -20578.15, -23086.29, -21419.03, 0.000, 0.000, 0.000, 10:44:03.413, 1583739843413
243, -24681.04, -30273.80, -19209.16, -15454.62, -18015.93, -20555.42, -22976.68, -21252.96, 0.000, 0.000, 0.000, 10:44:03.414, 1583739843414
244, -25100.03, -30326.94, -19278.80, -15501.40, -18384.24, -20578.85, -23192.37, -21425.67, 0.000, 0.000, 0.000, 10:44:03.414, 1583739843414
245, -25493.21, -30353.96, -19363.14, -15603.15, -18892.23, -20619.10, -23357.46, -21640.42, 0.000, 0.000, 0.000, 10:44:03.414, 1583739843414
246, -25518.58, -30354.36, -19375.43, -15596.64, -18944.20, -20608.69, -23351.72, -21670.35, 0.000, 0.000, 0.000, 10:44:03.414, 1583739843414
247, -24983.95, -30293.72, -19271.63, -15506.34, -18386.48, -20571.23, -23090.87, -21416.12, 0.000, 0.000, 0.000, 10:44:03.414, 1583739843414
248, -24691.79, -30272.04, -19210.79, -15454.46, -18021.90, -20558.31, -22984.39, -21256.24, 0.000, 0.000, 0.000, 10:44:03.414, 1583739843414
249, -25107.54, -30336.17, -19284.71, -15493.38, -18398.10, -20580.44, -23203.50, -21428.15, 0.000, 0.000, 0.000, 10:44:03.414, 1583739843414
250, -25496.95, -30370.70, -19376.71, -15598.52, -18911.79, -20626.01, -23372.79, -21646.88, 0.000, -0.016, 0.968, 10:44:03.415, 1583739843415
251, -25529.60, -30367.97, -19401.56, -15620.38, -18975.65, -20635.69, -23377.15, -21692.55, 0.000, 0.000, 0.000, 10:44:03.415, 1583739843415
252, -24992.29, -30302.08, -19298.07, -15529.86, -18417.93, -20598.83, -23115.68, -21438.54, 0.000, 0.000, 0.000, 10:44:03.415, 1583739843415
253, -24694.83, -30286.81, -19231.13, -15462.40, -18044.59, -20577.15, -23006.11, -21271.04, 0.000, 0.000, 0.000, 10:44:03.419, 1583739843419
254, -25114.13, -30344.15, -19298.52, -15505.76, -18414.24, -20599.08, -23220.64, -21440.17, 0.000, 0.000, 0.000, 10:44:03.420, 1583739843420
255, -25505.44, -30368.55, -19382.70, -15609.72, -18920.08, -20640.20, -23385.47, -21653.39, 0.000, 0.000, 0.000, 10:44:03.420, 1583739843420
0, -25530.16, -30354.76, -19401.25, -15619.49, -18976.61, -20636.65, -23380.86, -21688.05, 0.000, 0.000, 0.000, 10:44:03.420, 1583739843420
1, -24999.13, -30282.19, -19298.65, -15535.56, -18419.49, -20598.12, -23115.14, -21434.58, 0.000, 0.000, 0.000, 10:44:03.420, 1583739843420
2, -24694.36, -30270.34, -19222.12, -15458.71, -18035.15, -20564.52, -22991.58, -21259.28, 0.000, 0.000, 0.000, 10:44:03.421, 1583739843421
3, -25112.61, -30343.21, -19286.98, -15495.57, -18398.70, -20584.01, -23204.28, -21428.59, 0.000, 0.000, 0.000, 10:44:03.421, 1583739843421
4, -25508.32, -30368.62, -19368.43, -15603.48, -18905.08, -20626.99, -23368.17, -21645.92, 0.000, 0.000, 0.000, 10:44:03.421, 1583739843421
5, -25533.09, -30358.94, -19378.13, -15605.56, -18953.59, -20617.16, -23358.15, -21676.43, 0.002, -0.024, 0.970, 10:44:03.421, 1583739843421
6, -24996.94, -30307.15, -19280.93, -15518.08, -18395.84, -20581.08, -23096.28, -21423.43, 0.000, 0.000, 0.000, 10:44:03.421, 1583739843421
7, -24693.02, -30287.71, -19218.45, -15461.17, -18022.66, -20561.68, -22983.83, -21257.16, 0.000, 0.000, 0.000, 10:44:03.421, 1583739843421
8, -25106.71, -30341.35, -19285.29, -15498.79, -18388.71, -20581.06, -23200.84, -21426.13, 0.000, 0.000, 0.000, 10:44:03.422, 1583739843422
9, -25502.36, -30367.82, -19366.24, -15594.05, -18897.26, -20617.63, -23366.31, -21638.72, 0.000, 0.000, 0.000, 10:44:03.422, 1583739843422
10, -25531.73, -30361.38, -19380.66, -15601.34, -18954.08, -20610.30, -23360.52, -21673.21, 0.000, 0.000, 0.000, 10:44:03.422, 1583739843422
11, -24994.08, -30291.22, -19280.10, -15518.12, -18398.19, -20573.80, -23100.28, -21422.74, 0.000, 0.000, 0.000, 10:44:03.422, 1583739843422
12, -24688.30, -30269.71, -19212.33, -15450.33, -18020.47, -20548.49, -22984.83, -21251.08, 0.000, 0.000, 0.000, 10:44:03.422, 1583739843422
13, -25103.85, -30338.85, -19279.74, -15482.70, -18383.37, -20566.58, -23198.70, -21418.40, 0.000, 0.000, 0.000, 10:44:03.422, 1583739843422
14, -25502.29, -30365.85, -19367.63, -15592.40, -18896.88, -20614.72, -23367.47, -21639.51, 0.000, 0.000, 0.000, 10:44:03.423, 1583739843423
15, -25535.55, -30359.55, -19380.62, -15602.32, -18956.87, -20613.11, -23362.71, -21677.59, 0.004, -0.022, 0.972, 10:44:03.423, 1583739843423
16, -25001.23, -30290.39, -19274.06, -15512.94, -18398.39, -20575.47, -23098.22, -21423.50, 0.000, 0.000, 0.000, 10:44:03.423, 1583739843423
17, -24691.32, -30271.59, -19208.22, -15451.98, -18020.78, -20553.52, -22984.34, -21253.29, 0.000, 0.000, 0.000, 10:44:03.423, 1583739843423
18, -25098.71, -30338.16, -19284.08, -15498.07, -18392.22, -20579.65, -23204.37, -21426.87, 0.000, 0.000, 0.000, 10:44:03.423, 1583739843423
19, -25496.63, -30370.99, -19371.96, -15604.47, -18909.51, -20626.01, -23373.42, -21648.27, 0.000, 0.000, 0.000, 10:44:03.423, 1583739843423
20, -25536.73, -30365.96, -19395.12, -15615.31, -18977.08, -20626.99, -23374.85, -21689.77, 0.000, 0.000, 0.000, 10:44:03.424, 1583739843424
21, -24998.62, -30291.17, -19291.21, -15525.66, -18419.54, -20588.66, -23111.10, -21435.37, 0.000, 0.000, 0.000, 10:44:03.424, 1583739843424
22, -24689.54, -30274.70, -19233.94, -15474.69, -18048.41, -20577.91, -23002.43, -21273.07, 0.000, 0.000, 0.000, 10:44:03.424, 1583739843424
23, -25102.57, -30334.65, -19310.50, -15523.64, -18418.64, -20607.97, -23223.78, -21447.44, 0.000, 0.000, 0.000, 10:44:03.424, 1583739843424
24, -25494.47, -30356.17, -19393.22, -15621.16, -18924.95, -20646.55, -23387.17, -21658.39, 0.000, 0.000, 0.000, 10:44:03.424, 1583739843424
25, -25527.08, -30361.04, -19409.16, -15627.07, -18987.61, -20640.70, -23384.69, -21695.07, 0.004, -0.018, 0.968, 10:44:03.425, 1583739843425
26, -24992.07, -30296.87, -19302.12, -15537.88, -18429.62, -20601.65, -23120.73, -21442.79, 0.000, 0.000, 0.000, 10:44:03.425, 1583739843425
27, -24683.48, -30272.22, -19231.20, -15468.12, -18044.72, -20575.36, -22999.03, -21268.18, 0.000, 0.000, 0.000, 10:44:03.425, 1583739843425
28, -25096.05, -30327.23, -19299.68, -15506.10, -18402.06, -20596.01, -23211.91, -21434.63, 0.000, 0.000, 0.000, 10:44:03.425, 1583739843425
29, -25492.10, -30364.13, -19380.66, -15605.16, -18911.72, -20636.29, -23376.46, -21650.01, 0.000, 0.000, 0.000, 10:44:03.426, 1583739843426
30, -25527.30, -30363.39, -19393.40, -15612.27, -18974.24, -20629.65, -23372.39, -21686.33, 0.000, 0.000, 0.000, 10:44:03.426, 1583739843426
31, -24996.02, -30300.02, -19293.27, -15531.69, -18421.48, -20592.59, -23110.92, -21435.23, 0.000, 0.000, 0.000, 10:44:03.426, 1583739843426
32, -24684.86, -30280.73, -19221.74, -15465.57, -18036.34, -20567.09, -22989.17, -21261.80, 0.000, 0.000, 0.000, 10:44:03.427, 1583739843427
33, -25095.17, -30339.07, -19285.06, -15494.45, -18392.49, -20580.12, -23199.25, -21424.75, 0.000, 0.000, 0.000, 10:44:03.427, 1583739843427
34, -25488.23, -30355.68, -19368.75, -15593.83, -18899.12, -20617.31, -23364.84, -21636.80, 0.000, 0.000, 0.000, 10:44:03.427, 1583739843427
35, -25522.32, -30340.84, -19383.86, -15599.89, -18959.64, -20611.08, -23363.05, -21672.27, 0.010, -0.016, 0.968, 10:44:03.428, 1583739843428
36, -24988.42, -30288.33, -19277.98, -15510.28, -18400.38, -20570.18, -23098.22, -21417.87, 0.000, 0.000, 0.000, 10:44:03.428, 1583739843428
37, -24676.01, -30278.83, -19207.46, -15443.54, -18016.42, -20545.63, -22978.84, -21244.10, 0.000, 0.000, 0.000, 10:44:03.428, 1583739843428
38, -25088.87, -30336.68, -19276.41, -15480.62, -18377.58, -20565.19, -23192.10, -21411.72, 0.000, 0.000, 0.000, 10:44:03.428, 1583739843428
39, -25494.49, -30363.01, -19360.50, -15589.54, -18889.71, -20611.08, -23359.63, -21632.15, 0.000, 0.000, 0.000, 10:44:03.428, 1583739843428
40, -25535.62, -30366.10, -19389.96, -15612.56, -18963.29, -20620.09, -23368.79, -21682.35, 0.000, 0.000, 0.000, 10:44:03.428, 1583739843428
41, -25000.74, -30298.10, -19290.00, -15527.13, -18412.21, -20582.80, -23106.43, -21430.29, 0.000, 0.000, 0.000, 10:44:03.429, 1583739843429
42, -24689.07, -30282.01, -19220.24, -15470.98, -18030.46, -20565.28, -22988.12, -21259.95, 0.000, 0.000, 0.000, 10:44:03.429, 1583739843429
43, -25096.92, -30344.91, -19285.24, -15508.47, -18385.27, -20585.04, -23203.23, -21427.66, 0.000, 0.000, 0.000, 10:44:03.429, 1583739843429
44, -25487.51, -30365.07, -19359.45, -15590.14, -18887.38, -20612.93, -23362.98, -21635.62, 0.000, 0.000, 0.000, 10:44:03.429, 1583739843429
45, -25527.95, -30349.67, -19374.92, -15597.72, -18958.46, -20609.00, -23361.53, -21676.77, 0.002, -0.014, 0.968, 10:44:03.429, 1583739843429
46, -25000.98, -30295.60, -19282.67, -15516.29, -18415.00, -20578.22, -23105.73, -21433.69, 0.000, 0.000, 0.000, 10:44:03.429, 1583739843429
47, -24693.51, -30292.89, -19218.07, -15456.88, -18035.33, -20561.95, -22990.71, -21266.61, 0.000, 0.000, 0.000, 10:44:03.429, 1583739843429
48, -25096.69, -30348.71, -19284.66, -15498.10, -18392.33, -20584.79, -23204.31, -21433.27, 0.000, 0.000, 0.000, 10:44:03.430, 1583739843430
49, -25493.97, -30372.09, -19377.15, -15607.87, -18908.75, -20632.76, -23376.95, -21654.95, 0.000, 0.000, 0.000, 10:44:03.430, 1583739843430
50, -25532.38, -30363.03, -19398.05, -15620.23, -18981.19, -20631.82, -23376.21, -21696.61, 0.000, 0.000, 0.000, 10:44:03.430, 1583739843430
51, -25005.50, -30303.06, -19298.09, -15536.03, -18432.19, -20597.89, -23116.93, -21448.93, 0.000, 0.000, 0.000, 10:44:03.430, 1583739843430
52, -24690.32, -30273.69, -19227.17, -15469.42, -18043.71, -20574.49, -22994.92, -21272.98, 0.000, 0.000, 0.000, 10:44:03.430, 1583739843430
53, -25095.33, -30332.19, -19295.95, -15504.13, -18399.08, -20593.20, -23207.28, -21435.57, 0.000, 0.000, 0.000, 10:44:03.430, 1583739843430
54, -25485.77, -30350.87, -19374.63, -15599.62, -18904.32, -20627.20, -23366.94, -21643.01, 0.000, 0.000, 0.000, 10:44:03.431, 1583739843431
55, -25520.19, -30345.00, -19388.77, -15605.03, -18970.53, -20618.23, -23364.17, -21678.42, 0.002, -0.012, 0.968, 10:44:03.431, 1583739843431
56, -24989.00, -30285.32, -19287.48, -15518.08, -18416.21, -20578.33, -23102.52, -21425.96, 0.000, 0.000, 0.000, 10:44:03.431, 1583739843431
57, -24668.52, -30264.24, -19217.63, -15454.35, -18022.77, -20553.12, -22978.26, -21247.10, 0.000, 0.000, 0.000, 10:44:03.431, 1583739843431
58, -25071.55, -30323.61, -19283.50, -15492.31, -18376.13, -20571.94, -23187.05, -21408.61, 0.000, 0.000, 0.000, 10:44:03.431, 1583739843431
59, -25473.41, -30346.40, -19362.47, -15592.06, -18884.88, -20610.30, -23351.00, -21624.11, 0.000, 0.000, 0.000, 10:44:03.432, 1583739843432
60, -25515.05, -30342.49, -19374.22, -15593.69, -18951.93, -20601.13, -23349.32, -21662.33, 0.000, 0.000, 0.000, 10:44:03.433, 1583739843433
61, -24991.69, -30278.25, -19271.36, -15501.74, -18398.55, -20559.56, -23087.85, -21410.49, 0.000, 0.000, 0.000, 10:44:03.433, 1583739843433
62, -24669.89, -30262.67, -19203.81, -15438.01, -18011.50, -20537.63, -22966.57, -21235.25, 0.000, 0.000, 0.000, 10:44:03.434, 1583739843434
63, -25077.07, -30335.81, -19280.01, -15485.18, -18373.18, -20565.37, -23187.79, -21406.62, 0.000, 0.000, 0.000, 10:44:03.434, 1583739843434
64, -25479.38, -30359.95, -19363.45, -15591.59, -18884.29, -20609.40, -23355.78, -21626.81, 0.000, 0.000, 0.000, 10:44:03.434, 1583739843434
65, -25528.08, -30337.80, -19373.51, -15591.68, -18956.11, -20600.24, -23355.14, -21665.39, 0.006, -0.016, 0.968, 10:44:03.434, 1583739843434
66, -25000.07, -30279.93, -19267.94, -15499.91, -18404.11, -20560.27, -23093.75, -21414.85, 0.000, 0.000, 0.000, 10:44:03.435, 1583739843435
67, -24682.61, -30278.34, -19198.96, -15439.02, -18013.65, -20540.40, -22970.22, -21242.79, 0.000, 0.000, 0.000, 10:44:03.435, 1583739843435
68, -25094.55, -30346.27, -19272.30, -15485.24, -18369.51, -20568.05, -23189.13, -21416.17, 0.000, 0.000, 0.000, 10:44:03.435, 1583739843435
69, -25489.30, -30370.54, -19360.23, -15592.06, -18884.52, -20613.87, -23360.52, -21638.63, 0.000, 0.000, 0.000, 10:44:03.436, 1583739843436
70, -25537.25, -30371.75, -19388.33, -15612.36, -18968.34, -20618.52, -23370.25, -21689.91, 0.000, 0.000, 0.000, 10:44:03.436, 1583739843436
71, -25017.35, -30310.33, -19289.31, -15528.70, -18423.98, -20584.50, -23114.52, -21444.40, 0.000, 0.000, 0.000, 10:44:03.436, 1583739843436
72, -24691.28, -30282.95, -19213.40, -15452.65, -18029.16, -20555.45, -22986.13, -21262.14, 0.000, 0.000, 0.000, 10:44:03.437, 1583739843437
73, -25088.54, -30339.43, -19281.53, -15488.13, -18382.61, -20574.65, -23196.19, -21423.36, 0.000, 0.000, 0.000, 10:44:03.437, 1583739843437
74, -25488.63, -30369.81, -19365.89, -15590.14, -18897.30, -20616.15, -23363.96, -21640.60, 0.000, 0.000, 0.000, 10:44:03.437, 1583739843437
75, -25537.54, -30361.47, -19387.21, -15598.99, -18976.21, -20613.25, -23370.34, -21683.72, 0.010, -0.020, 0.966, 10:44:03.437, 1583739843437
76, -25013.23, -30292.67, -19295.75, -15518.30, -18436.86, -20581.62, -23118.05, -21436.46, 0.000, 0.000, 0.000, 10:44:03.437, 1583739843437
77, -24689.20, -30270.32, -19234.88, -15462.22, -18048.85, -20567.76, -22998.54, -21263.24, 0.000, 0.000, 0.000, 10:44:03.438, 1583739843438
78, -25092.76, -30341.58, -19301.18, -15505.70, -18397.74, -20592.26, -23209.07, -21429.33, 0.000, 0.000, 0.000, 10:44:03.438, 1583739843438
79, -25489.95, -30372.53, -19383.01, -15611.04, -18908.05, -20635.67, -23374.43, -21650.01, 0.000, 0.000, 0.000, 10:44:03.438, 1583739843438
80, -25537.36, -30361.11, -19401.36, -15622.91, -18984.61, -20634.57, -23376.77, -21694.42, 0.000, 0.000, 0.000, 10:44:03.438, 1583739843438
81, -25010.93, -30300.00, -19300.60, -15535.89, -18435.65, -20596.69, -23117.56, -21445.29, 0.000, 0.000, 0.000, 10:44:03.438, 1583739843438
82, -24680.88, -30284.24, -19225.36, -15466.56, -18036.85, -20569.24, -22987.07, -21263.93, 0.000, 0.000, 0.000, 10:44:03.438, 1583739843438
83, -25085.76, -30341.42, -19292.44, -15505.00, -18387.93, -20590.25, -23196.19, -21427.52, 0.000, 0.000, 0.000, 10:44:03.438, 1583739843438
84, -25489.17, -30365.36, -19378.38, -15607.98, -18899.45, -20631.82, -23363.29, -21644.22, 0.000, 0.000, 0.000, 10:44:03.439, 1583739843439
85, -25541.27, -30355.63, -19393.02, -15611.26, -18974.44, -20625.65, -23367.21, -21688.23, 0.008, -0.020, 0.970, 10:44:03.439, 1583739843439
86, -25011.47, -30290.61, -19282.87, -15509.65, -18418.57, -20577.22, -23103.81, -21432.39, 0.000, 0.000, 0.000, 10:44:03.439, 1583739843439
87, -24689.31, -30275.46, -19210.41, -15441.79, -18021.81, -20551.11, -22977.41, -21251.05, 0.000, 0.000, 0.000, 10:44:03.439, 1583739843439
88, -25087.84, -30336.03, -19275.43, -15476.33, -18366.65, -20567.78, -23187.68, -21410.71, 0.000, 0.000, 0.000, 10:44:03.439, 1583739843439
89, -25488.54, -30363.37, -19358.11, -15575.59, -18877.32, -20605.04, -23355.87, -21625.85, 0.000, 0.000, 0.000, 10:44:03.439, 1583739843439
90, -25537.78, -30360.73, -19372.77, -15584.95, -18956.51, -20598.52, -23356.86, -21666.37, 0.000, 0.000, 0.000, 10:44:03.439, 1583739843439
91, -25020.16, -30303.85, -19274.94, -15500.40, -18412.14, -20563.02, -23101.00, -21421.31, 0.000, 0.000, 0.000, 10:44:03.440, 1583739843440
92, -24692.78, -30284.80, -19207.66, -15437.28, -18015.82, -20539.82, -22974.93, -21243.34, 0.000, 0.000, 0.000, 10:44:03.440, 1583739843440
93, -25083.78, -30337.26, -19270.24, -15472.35, -18360.71, -20555.83, -23183.14, -21401.91, 0.000, 0.000, 0.000, 10:44:03.440, 1583739843440
94, -25482.89, -30363.79, -19356.36, -15574.40, -18875.58, -20597.33, -23353.30, -21620.17, 0.000, 0.000, 0.000, 10:44:03.440, 1583739843440
95, -25532.64, -30359.05, -19380.55, -15594.88, -18960.36, -20600.98, -23360.77, -21669.39, 0.000, 0.000, 0.000, 10:44:03.440, 1583739843440
96, -25015.54, -30295.29, -19280.28, -15510.14, -18416.61, -20566.53, -23105.58, -21426.25, 0.006, -0.026, 0.976, 10:44:03.440, 1583739843440
97, -24688.98, -30274.79, -19204.60, -15440.92, -18016.02, -20543.62, -22977.64, -21247.54, 0.000, 0.000, 0.000, 10:44:03.440, 1583739843440
98, -25086.46, -30340.79, -19271.90, -15481.09, -18362.40, -20566.53, -23187.61, -21410.82, 0.000, 0.000, 0.000, 10:44:03.440, 1583739843440
99, -25488.74, -30364.69, -19351.89, -15579.08, -18873.21, -20605.13, -23352.59, -21626.92, 0.000, 0.000, 0.000, 10:44:03.441, 1583739843441
100, -25545.65, -30367.55, -19377.69, -15600.22, -18967.18, -20611.15, -23365.02, -21681.21, 0.000, 0.000, 0.000, 10:44:03.441, 1583739843441
101, -25026.15, -30306.44, -19289.73, -15525.97, -18432.14, -20584.88, -23117.34, -21443.79, 0.000, 0.000, 0.000, 10:44:03.441, 1583739843441
102, -24690.94, -30281.92, -19217.25, -15463.81, -18030.01, -20566.49, -22987.63, -21265.72, 0.000, 0.000, 0.000, 10:44:03.441, 1583739843441
103, -25089.18, -30341.38, -19281.29, -15497.56, -18374.94, -20587.70, -23195.59, -21425.91, 0.000, 0.000, 0.000, 10:44:03.441, 1583739843441
104, -25491.65, -30369.29, -19367.99, -15598.43, -18894.31, -20628.69, -23365.75, -21643.37, 0.000, 0.000, 0.000, 10:44:03.441, 1583739843441
105, -25542.46, -30365.49, -19394.61, -15617.30, -18983.65, -20630.28, -23376.08, -21692.23, 0.000, 0.000, 0.000, 10:44:03.441, 1583739843441
106, -25012.99, -30298.32, -19296.35, -15528.25, -18438.74, -20592.26, -23116.20, -21443.48, 0.010, -0.022, 0.976, 10:44:03.894, 1583739843894
107, -24682.47, -30273.40, -19224.71, -15460.48, -18035.42, -20568.16, -22983.78, -21259.44, 0.000, 0.000, 0.000, 10:44:03.894, 1583739843894
108, -25084.36, -30331.45, -19290.96, -15497.27, -18381.16, -20587.77, -23194.14, -21418.42, 0.000, 0.000, 0.000, 10:44:03.894, 1583739843894
109, -25488.95, -30350.54, -19372.77, -15596.24, -18896.43, -20627.84, -23365.39, -21634.41, 0.000, 0.000, 0.000, 10:44:03.895, 1583739843895
110, -25537.61, -30349.67, -19395.86, -15609.81, -18984.41, -20625.14, -23371.86, -21680.59, 0.000, 0.000, 0.000, 10:44:03.895, 1583739843895
111, -25022.13, -30305.48, -19302.72, -15533.99, -18446.78, -20593.80, -23119.59, -21439.90, 0.000, 0.000, 0.000, 10:44:03.895, 1583739843895
112, -24685.67, -30281.20, -19224.04, -15468.21, -18037.99, -20567.16, -22984.54, -21256.02, 0.000, 0.000, 0.000, 10:44:03.895, 1583739843895
113, -25080.96, -30332.14, -19281.98, -15493.40, -18371.43, -20577.26, -23189.33, -21410.04, 0.000, 0.000, 0.000, 10:44:03.895, 1583739843895
114, -25483.65, -30355.52, -19363.58, -15584.40, -18880.74, -20610.54, -23357.53, -21623.12, 0.000, 0.000, 0.000, 10:44:03.895, 1583739843895
115, -25543.91, -30363.93, -19386.49, -15596.85, -18968.96, -20608.49, -23368.73, -21671.78, 0.000, 0.000, 0.000, 10:44:03.896, 1583739843896
116, -25034.87, -30313.30, -19293.89, -15518.99, -18435.88, -20577.62, -23120.11, -21434.12, 0.006, -0.018, 0.970, 10:44:03.897, 1583739843897
117, -24702.07, -30289.50, -19229.47, -15466.04, -18036.83, -20561.30, -22993.60, -21257.76, 0.000, 0.000, 0.000, 10:44:03.897, 1583739843897
118, -25091.75, -30343.83, -19291.21, -15498.12, -18373.16, -20577.91, -23199.63, -21415.29, 0.000, 0.000, 0.000, 10:44:03.902, 1583739843902
119, -25494.44, -30375.06, -19366.29, -15580.84, -18883.20, -20607.99, -23364.41, -21628.02, 0.000, 0.000, 0.000, 10:44:03.902, 1583739843902
120, -25555.55, -30373.76, -19390.12, -15597.20, -18975.09, -20607.48, -23373.06, -21679.34, 0.000, 0.000, 0.000, 10:44:03.902, 1583739843902
121, -25036.43, -30303.42, -19291.46, -15518.44, -18433.95, -20573.04, -23117.98, -21437.02, 0.000, 0.000, 0.000, 10:44:03.903, 1583739843903
122, -24692.22, -30271.75, -19222.07, -15460.23, -18031.08, -20558.89, -22988.37, -21260.67, 0.000, 0.000, 0.000, 10:44:03.903, 1583739843903
123, -25084.60, -30345.38, -19291.99, -15500.33, -18373.38, -20585.42, -23201.11, -21425.96, 0.000, 0.000, 0.000, 10:44:03.903, 1583739843903
124, -25495.09, -30376.15, -19380.59, -15607.42, -18897.88, -20631.60, -23375.86, -21650.57, 0.000, 0.000, 0.000, 10:44:03.903, 1583739843903
125, -25555.08, -30368.00, -19408.38, -15622.75, -18993.28, -20634.82, -23388.73, -21704.66, 0.000, 0.000, 0.000, 10:44:03.904, 1583739843904
126, -25036.26, -30308.56, -19305.92, -15533.21, -18453.35, -20598.72, -23133.36, -21462.17, 0.002, -0.018, 0.970, 10:44:03.904, 1583739843904
127, -24698.97, -30283.28, -19227.42, -15464.05, -18043.38, -20574.13, -22998.87, -21276.33, 0.000, 0.000, 0.000, 10:44:03.904, 1583739843904
128, -25092.83, -30352.88, -19291.05, -15499.35, -18382.43, -20593.85, -23206.74, -21433.06, 0.000, 0.000, 0.000, 10:44:03.905, 1583739843905
129, -25495.20, -30381.25, -19381.09, -15608.29, -18903.63, -20639.24, -23380.37, -21654.19, 0.000, 0.000, 0.000, 10:44:03.905, 1583739843905
130, -25547.98, -30369.40, -19411.86, -15624.36, -19002.09, -20639.02, -23394.03, -21704.71, 0.000, 0.000, 0.000, 10:44:03.905, 1583739843905
131, -25036.95, -30305.50, -19314.07, -15537.30, -18465.76, -20601.85, -23141.01, -21461.09, 0.000, 0.000, 0.000, 10:44:03.905, 1583739843905
132, -24692.13, -30266.32, -19230.05, -15467.12, -18049.73, -20573.69, -22998.65, -21269.72, 0.000, 0.000, 0.000, 10:44:03.905, 1583739843905
133, -25082.48, -30333.24, -19296.62, -15505.09, -18388.15, -20595.08, -23207.19, -21426.09, 0.000, 0.000, 0.000, 10:44:03.905, 1583739843905
134, -25483.16, -30363.28, -19382.65, -15607.51, -18904.17, -20635.93, -23376.95, -21642.77, 0.000, 0.000, 0.000, 10:44:03.905, 1583739843905
135, -25542.77, -30358.25, -19407.17, -15625.43, -18999.63, -20638.97, -23386.12, -21695.09, 0.000, 0.000, 0.000, 10:44:03.905, 1583739843905
136, -25030.09, -30303.42, -19309.89, -15539.58, -18464.04, -20603.12, -23133.32, -21454.28, 0.002, -0.016, 0.972, 10:44:03.906, 1583739843906
137, -24685.53, -30277.89, -19233.21, -15467.61, -18049.32, -20573.97, -22995.72, -21264.55, 0.000, 0.000, 0.000, 10:44:03.906, 1583739843906
138, -25073.40, -30333.64, -19289.15, -15494.79, -18374.83, -20586.87, -23200.04, -21416.88, 0.000, 0.000, 0.000, 10:44:03.906, 1583739843906
139, -25477.81, -30364.84, -19370.11, -15595.97, -18891.16, -20625.88, -23369.33, -21634.50, 0.000, 0.000, 0.000, 10:44:03.906, 1583739843906
140, -25538.54, -30360.20, -19393.45, -15615.80, -18990.09, -20627.24, -23379.57, -21688.10, 0.000, 0.000, 0.000, 10:44:03.906, 1583739843906
141, -25027.40, -30299.58, -19298.41, -15538.57, -18455.92, -20595.81, -23128.76, -21451.06, 0.000, 0.000, 0.000, 10:44:03.906, 1583739843906
142, -24692.80, -30277.94, -19220.38, -15466.69, -18039.51, -20566.71, -22989.37, -21262.52, 0.000, 0.000, 0.000, 10:44:03.907, 1583739843907
143, -25086.90, -30334.67, -19279.18, -15486.50, -18366.61, -20575.72, -23191.83, -21412.32, 0.000, 0.000, 0.000, 10:44:03.907, 1583739843907
144, -25492.61, -30359.68, -19360.48, -15580.75, -18879.76, -20610.21, -23361.35, -21625.47, 0.000, 0.000, 0.000, 10:44:03.907, 1583739843907
145, -25554.03, -30360.44, -19382.67, -15599.91, -18974.06, -20610.32, -23370.51, -21677.30, 0.000, 0.000, 0.000, 10:44:03.907, 1583739843907
146, -25037.17, -30299.73, -19285.89, -15522.26, -18436.75, -20578.40, -23118.14, -21439.08, 0.004, -0.020, 0.970, 10:44:03.907, 1583739843907
147, -24692.73, -30282.39, -19205.71, -15452.48, -18017.54, -20553.10, -22979.47, -21253.38, 0.000, 0.000, 0.000, 10:44:03.907, 1583739843907
148, -25082.72, -30350.74, -19271.54, -15481.64, -18352.59, -20571.76, -23188.71, -21411.65, 0.000, 0.000, 0.000, 10:44:03.908, 1583739843908
149, -25490.60, -30378.97, -19358.33, -15586.14, -18874.93, -20614.63, -23364.10, -21633.74, 0.000, 0.000, 0.000, 10:44:03.908, 1583739843908
150, -25552.65, -30368.82, -19379.43, -15596.58, -18970.30, -20610.34, -23373.82, -21684.63, 0.000, 0.000, 0.000, 10:44:03.908, 1583739843908
151, -25044.99, -30312.34, -19288.06, -15517.90, -18441.33, -20578.67, -23124.09, -21447.30, 0.000, 0.000, 0.000, 10:44:03.908, 1583739843908
152, -24697.22, -30292.78, -19219.08, -15455.81, -18034.44, -20560.03, -22991.32, -21264.98, 0.000, 0.000, 0.000, 10:44:03.908, 1583739843908
153, -25087.98, -30347.61, -19289.87, -15491.37, -18373.74, -20584.95, -23204.55, -21425.44, 0.000, 0.000, 0.000, 10:44:03.908, 1583739843908
154, -25494.42, -30370.90, -19376.21, -15596.53, -18892.61, -20630.03, -23378.63, -21646.23, 0.000, 0.000, 0.000, 10:44:03.908, 1583739843908
155, -25557.99, -30358.79, -19399.79, -15608.76, -18992.79, -20629.43, -23388.44, -21698.29, 0.000, 0.000, 0.000, 10:44:03.908, 1583739843908
156, -25051.37, -30309.08, -19313.27, -15537.19, -18469.78, -20604.49, -23140.45, -21465.86, 0.004, -0.024, 0.974, 10:44:03.909, 1583739843909
157, -24703.37, -30286.41, -19243.51, -15480.33, -18058.85, -20590.54, -23006.00, -21284.25, 0.000, 0.000, 0.000, 10:44:03.909, 1583739843909
158, -25087.60, -30342.09, -19301.87, -15507.04, -18384.42, -20605.89, -23209.09, -21435.32, 0.000, 0.000, 0.000, 10:44:03.909, 1583739843909
159, -25494.55, -30379.80, -19388.80, -15612.51, -18905.87, -20648.79, -23383.14, -21657.41, 0.000, 0.000, 0.000, 10:44:03.909, 1583739843909
160, -25555.44, -30373.70, -19413.85, -15632.34, -19007.39, -20649.90, -23397.76, -21711.39, 0.000, 0.000, 0.000, 10:44:03.909, 1583739843909
161, -25040.39, -30302.68, -19312.40, -15540.56, -18469.69, -20607.39, -23142.55, -21465.70, 0.000, 0.000, 0.000, 10:44:03.909, 1583739843909
162, -24685.82, -30272.55, -19227.69, -15465.66, -18045.26, -20575.88, -22996.59, -21270.08, 0.000, 0.000, 0.000, 10:44:03.909, 1583739843909
163, -25072.67, -30332.97, -19286.49, -15499.50, -18370.25, -20593.33, -23197.44, -21422.47, 0.000, 0.000, 0.000, 10:44:03.909, 1583739843909
164, -25482.93, -30363.08, -19372.44, -15608.31, -18888.21, -20636.07, -23368.23, -21642.46, 0.000, 0.000, 0.000, 10:44:03.910, 1583739843910
165, -25550.30, -30354.67, -19397.38, -15627.02, -18988.52, -20635.51, -23379.43, -21695.36, 0.000, 0.000, 0.000, 10:44:03.910, 1583739843910
166, -25040.81, -30299.29, -19301.76, -15530.08, -18457.24, -20593.04, -23128.18, -21451.73, 0.000, -0.022, 0.966, 10:44:03.910, 1583739843910
167, -24685.13, -30269.94, -19219.46, -15453.50, -18034.39, -20561.12, -22984.77, -21258.10, 0.000, 0.000, 0.000, 10:44:03.910, 1583739843910
168, -25072.44, -30331.81, -19273.84, -15482.58, -18356.12, -20574.65, -23186.18, -21410.06, 0.000, 0.000, 0.000, 10:44:03.910, 1583739843910
169, -25483.33, -30363.44, -19358.87, -15582.50, -18874.19, -20612.67, -23357.51, -21626.34, 0.000, 0.000, 0.000, 10:44:03.910, 1583739843910
170, -25552.04, -30365.78, -19384.88, -15601.70, -18978.44, -20612.82, -23372.64, -21680.50, 0.000, 0.000, 0.000, 10:44:03.910, 1583739843910
171, -25041.13, -30297.97, -19288.64, -15517.34, -18448.26, -20575.43, -23121.07, -21441.45, 0.000, 0.000, 0.000, 10:44:03.910, 1583739843910
172, -24691.79, -30272.91, -19214.56, -15451.20, -18029.72, -20553.93, -22981.84, -21254.47, 0.000, 0.000, 0.000, 10:44:03.911, 1583739843911
173, -25073.29, -30336.70, -19277.17, -15482.58, -18355.01, -20572.59, -23187.14, -21407.99, 0.000, 0.000, 0.000, 10:44:03.911, 1583739843911
174, -25486.53, -30370.30, -19362.02, -15584.55, -18876.03, -20614.12, -23360.93, -21629.31, 0.000, 0.000, 0.000, 10:44:03.911, 1583739843911
175, -25552.63, -30364.89, -19379.43, -15599.93, -18979.71, -20611.21, -23369.29, -21682.02, 0.000, 0.000, 0.000, 10:44:03.911, 1583739843911
176, -25048.12, -30307.29, -19289.64, -15524.98, -18457.47, -20581.78, -23122.83, -21447.86, 0.002, -0.022, 0.968, 10:44:03.911, 1583739843911
177, -24689.54, -30280.02, -19217.78, -15462.04, -18040.40, -20562.42, -22985.53, -21262.77, 0.000, 0.000, 0.000, 10:44:03.911, 1583739843911
178, -25074.61, -30337.11, -19282.98, -15493.63, -18369.67, -20582.54, -23194.05, -21416.35, 0.000, 0.000, 0.000, 10:44:03.911, 1583739843911
179, -25483.92, -30360.24, -19367.83, -15592.42, -18890.29, -20622.43, -23368.28, -21634.68, 0.000, 0.000, 0.000, 10:44:03.911, 1583739843911
180, -25552.45, -30360.46, -19389.38, -15608.89, -18993.97, -20623.02, -23379.79, -21690.49, 0.000, 0.000, 0.000, 10:44:03.911, 1583739843911
181, -25056.91, -30303.09, -19300.44, -15535.49, -18471.95, -20597.76, -23135.13, -21460.60, 0.000, 0.000, 0.000, 10:44:03.912, 1583739843912
182, -24694.68, -30272.35, -19219.41, -15465.91, -18044.32, -20573.30, -22989.37, -21269.58, 0.000, 0.000, 0.000, 10:44:03.912, 1583739843912
183, -25076.64, -30332.28, -19282.31, -15501.31, -18367.88, -20594.81, -23194.81, -21425.51, 0.000, 0.000, 0.000, 10:44:03.912, 1583739843912
184, -25484.47, -30364.04, -19366.58, -15594.79, -18886.02, -20631.62, -23366.89, -21642.43, 0.000, 0.000, 0.000, 10:44:03.912, 1583739843912
185, -25560.16, -30365.94, -19398.88, -15619.42, -19000.21, -20638.13, -23385.27, -21704.44, 0.000, 0.000, 0.000, 10:44:03.912, 1583739843912
186, -25057.36, -30309.34, -19307.46, -15546.08, -18477.83, -20609.78, -23139.38, -21473.03, 0.000, 0.000, 0.000, 10:44:03.912, 1583739843912
187, -24696.64, -30282.77, -19230.88, -15474.94, -18055.16, -20584.37, -22997.08, -21279.89, 0.002, -0.018, 0.966, 10:44:03.912, 1583739843912
188, -25074.28, -30340.50, -19290.52, -15495.77, -18373.40, -20596.66, -23197.71, -21425.87, 0.000, 0.000, 0.000, 10:44:03.912, 1583739843912
189, -25486.40, -30356.89, -19374.07, -15598.70, -18893.08, -20637.95, -23371.79, -21644.02, 0.000, 0.000, 0.000, 10:44:03.913, 1583739843913
190, -25557.50, -30350.65, -19396.24, -15618.24, -18996.86, -20636.40, -23383.30, -21696.75, 0.000, 0.000, 0.000, 10:44:03.913, 1583739843913
191, -25054.99, -30304.14, -19296.80, -15531.85, -18467.44, -20596.84, -23130.41, -21457.49, 0.000, 0.000, 0.000, 10:44:03.913, 1583739843913
192, -24692.66, -30279.77, -19217.89, -15462.76, -18042.17, -20570.47, -22987.65, -21264.13, 0.000, 0.000, 0.000, 10:44:03.913, 1583739843913
193, -25075.50, -30334.69, -19283.99, -15498.16, -18365.02, -20590.13, -23193.76, -21416.75, 0.000, 0.000, 0.000, 10:44:03.913, 1583739843913
194, -25481.90, -30364.55, -19367.00, -15596.13, -18883.76, -20626.44, -23364.14, -21631.88, 0.000, 0.000, 0.000, 10:44:03.913, 1583739843913
195, -25558.30, -30365.31, -19388.51, -15609.83, -18991.00, -20623.17, -23377.89, -21686.02, 0.000, 0.000, 0.000, 10:44:03.914, 1583739843914
196, -25059.68, -30308.45, -19290.43, -15521.03, -18461.15, -20582.47, -23124.91, -21446.39, 0.000, 0.000, 0.000, 10:44:03.914, 1583739843914
197, -24696.87, -30280.22, -19209.18, -15448.50, -18030.91, -20553.52, -22977.41, -21250.03, 0.002, -0.022, 0.972, 10:44:03.914, 1583739843914
198, -25075.26, -30341.75, -19274.36, -15488.86, -18351.23, -20577.55, -23184.48, -21405.53, 0.000, 0.000, 0.000, 10:44:03.914, 1583739843914
199, -25488.56, -30371.50, -19361.24, -15601.38, -18874.15, -20624.49, -23363.00, -21631.35, 0.000, 0.000, 0.000, 10:44:03.914, 1583739843914
200, -25564.20, -30362.21, -19384.26, -15613.56, -18984.52, -20621.54, -23379.21, -21688.77, 0.000, 0.000, 0.000, 10:44:03.915, 1583739843915
201, -25056.28, -30297.90, -19284.73, -15516.40, -18456.77, -20577.89, -23124.98, -21446.28, 0.000, 0.000, 0.000, 10:44:03.915, 1583739843915
202, -24693.78, -30281.27, -19211.30, -15448.90, -18033.70, -20557.88, -22982.53, -21255.44, 0.000, 0.000, 0.000, 10:44:03.915, 1583739843915
203, -25071.93, -30343.54, -19278.80, -15486.79, -18356.91, -20581.93, -23189.42, -21412.10, 0.000, 0.000, 0.000, 10:44:03.915, 1583739843915
204, -25490.02, -30373.87, -19370.56, -15594.74, -18885.73, -20628.54, -23368.61, -21636.82, 0.000, 0.000, 0.000, 10:44:03.915, 1583739843915
205, -25560.43, -30372.60, -19396.93, -15616.56, -19001.93, -20631.91, -23386.12, -21697.91, 0.000, 0.000, 0.000, 10:44:03.915, 1583739843915
206, -25058.34, -30308.61, -19302.41, -15535.51, -18480.51, -20599.84, -23140.22, -21466.93, 0.000, 0.000, 0.000, 10:44:03.915, 1583739843915
207, -24696.96, -30275.48, -19225.21, -15467.36, -18050.62, -20577.69, -22995.70, -21274.52, -0.002, -0.020, 0.966, 10:44:03.916, 1583739843916
208, -25078.97, -30346.13, -19285.49, -15496.71, -18365.56, -20594.29, -23196.55, -21420.95, 0.000, 0.000, 0.000, 10:44:03.916, 1583739843916
209, -25489.19, -30381.52, -19365.77, -15593.94, -18879.98, -20630.64, -23365.44, -21636.85, 0.000, 0.000, 0.000, 10:44:03.916, 1583739843916
210, -25566.93, -30379.28, -19399.17, -15619.76, -19001.75, -20638.68, -23387.10, -21702.16, 0.000, 0.000, 0.000, 10:44:03.916, 1583739843916
211, -25064.33, -30318.49, -19307.88, -15542.78, -18485.16, -20608.96, -23140.34, -21472.36, 0.000, 0.000, 0.000, 10:44:03.916, 1583739843916
212, -24695.14, -30293.32, -19224.44, -15468.77, -18049.90, -20582.02, -22990.24, -21275.57, 0.000, 0.000, 0.000, 10:44:03.916, 1583739843916
213, -25070.19, -30345.35, -19282.38, -15498.23, -18363.10, -20598.16, -23189.53, -21421.82, 0.000, 0.000, 0.000, 10:44:03.916, 1583739843916
214, -25483.13, -30361.65, -19370.00, -15602.05, -18886.91, -20638.17, -23364.57, -21640.20, 0.000, 0.000, 0.000, 10:44:03.916, 1583739843916
215, -25560.98, -30360.80, -19393.20, -15609.25, -18995.27, -20630.35, -23378.43, -21692.68, 0.000, 0.000, 0.000, 10:44:03.917, 1583739843917
216, -25056.73, -30300.89, -19295.12, -15519.84, -18467.14, -20587.01, -23125.31, -21451.17, 0.000, 0.000, 0.000, 10:44:03.917, 1583739843917
217, -24682.34, -30272.13, -19215.93, -15453.30, -18033.81, -20560.38, -22975.83, -21250.74, 0.002, -0.018, 0.962, 10:44:03.917, 1583739843917
218, -25061.13, -30333.46, -19279.00, -15487.50, -18348.17, -20579.81, -23179.92, -21400.03, 0.000, 0.000, 0.000, 10:44:03.917, 1583739843917
219, -25469.05, -30357.31, -19364.05, -15584.73, -18870.28, -20616.58, -23353.33, -21619.41, 0.000, 0.000, 0.000, 10:44:03.917, 1583739843917
220, -25547.28, -30350.29, -19394.65, -15605.00, -18988.72, -20618.12, -23372.55, -21681.57, 0.000, 0.000, 0.000, 10:44:03.917, 1583739843917
221, -25059.48, -30298.28, -19294.83, -15518.82, -18463.12, -20578.33, -23120.85, -21444.42, 0.000, 0.000, 0.000, 10:44:03.917, 1583739843917
222, -24690.54, -30276.69, -19213.29, -15445.61, -18028.34, -20549.90, -22970.82, -21244.48, 0.000, 0.000, 0.000, 10:44:03.918, 1583739843918
223, -25061.49, -30330.06, -19272.81, -15476.41, -18340.21, -20568.77, -23174.64, -21392.83, 0.000, 0.000, 0.000, 10:44:03.918, 1583739843918
224, -25477.01, -30364.20, -19351.45, -15576.51, -18861.99, -20610.43, -23349.32, -21615.23, 0.000, 0.000, 0.000, 10:44:03.918, 1583739843918
225, -25556.36, -30368.58, -19375.14, -15595.39, -18979.07, -20611.37, -23365.42, -21675.87, 0.000, 0.000, 0.000, 10:44:03.918, 1583739843918
226, -25060.15, -30309.43, -19284.35, -15518.01, -18461.80, -20580.28, -23119.97, -21444.29, 0.000, 0.000, 0.000, 10:44:03.918, 1583739843918
227, -24694.56, -30284.58, -19205.67, -15446.78, -18028.34, -20555.20, -22970.44, -21248.19, 0.000, -0.018, 0.972, 10:44:04.374, 1583739844374
228, -25067.46, -30344.15, -19266.15, -15472.12, -18339.25, -20570.11, -23169.66, -21395.36, 0.000, 0.000, 0.000, 10:44:04.375, 1583739844375
229, -25483.65, -30374.14, -19355.25, -15577.13, -18864.13, -20613.05, -23348.03, -21618.07, 0.000, 0.000, 0.000, 10:44:04.375, 1583739844375
230, -25569.59, -30376.15, -19382.67, -15600.89, -18984.92, -20616.60, -23368.66, -21680.77, 0.000, 0.000, 0.000, 10:44:04.375, 1583739844375
231, -25068.35, -30318.58, -19294.27, -15526.50, -18468.78, -20587.70, -23126.43, -21451.93, 0.000, 0.000, 0.000, 10:44:04.375, 1583739844375
232, -24700.91, -30279.01, -19221.20, -15466.87, -18039.11, -20571.07, -22981.08, -21260.29, 0.000, 0.000, 0.000, 10:44:04.375, 1583739844375
233, -25071.48, -30335.59, -19278.54, -15499.28, -18345.66, -20589.53, -23181.20, -21408.41, 0.000, 0.000, 0.000, 10:44:04.375, 1583739844375
234, -25486.93, -30379.84, -19358.33, -15588.98, -18864.96, -20623.02, -23353.46, -21625.87, 0.000, 0.000, 0.000, 10:44:04.376, 1583739844376
235, -25570.60, -30384.71, -19383.74, -15597.58, -18985.44, -20619.24, -23372.77, -21686.36, 0.000, 0.000, 0.000, 10:44:04.376, 1583739844376
236, -25071.37, -30320.12, -19294.05, -15520.25, -18471.53, -20587.68, -23127.19, -21455.44, 0.000, 0.000, 0.000, 10:44:04.377, 1583739844377
237, -24699.10, -30292.63, -19217.02, -15460.19, -18037.99, -20569.77, -22979.87, -21262.12, -0.002, -0.018, 0.970, 10:44:04.377, 1583739844377
238, -25067.48, -30350.03, -19274.60, -15491.52, -18348.05, -20587.10, -23181.08, -21409.21, 0.000, 0.000, 0.000, 10:44:04.380, 1583739844380
239, -25485.84, -30373.20, -19366.27, -15594.07, -18877.68, -20630.64, -23359.74, -21630.83, 0.000, 0.000, 0.000, 10:44:04.380, 1583739844380
240, -25565.59, -30365.98, -19392.33, -15609.97, -18994.42, -20630.19, -23374.45, -21689.53, 0.000, 0.000, 0.000, 10:44:04.380, 1583739844380
241, -25070.36, -30315.09, -19300.31, -15532.05, -18477.49, -20596.62, -23128.15, -21459.33, 0.000, 0.000, 0.000, 10:44:04.380, 1583739844380
242, -24697.85, -30289.74, -19224.33, -15468.43, -18044.34, -20574.87, -22978.98, -21266.32, 0.000, 0.000, 0.000, 10:44:04.380, 1583739844380
243, -25070.36, -30338.45, -19284.57, -15500.98, -18353.15, -20594.20, -23180.08, -21414.09, 0.000, 0.000, 0.000, 10:44:04.381, 1583739844381
244, -25487.51, -30368.78, -19364.01, -15596.11, -18875.42, -20630.03, -23355.98, -21629.34, 0.000, 0.000, 0.000, 10:44:04.381, 1583739844381
245, -25562.93, -30366.30, -19389.80, -15609.25, -18992.99, -20624.40, -23373.69, -21685.37, 0.000, 0.000, 0.000, 10:44:04.381, 1583739844381
246, -25069.96, -30310.13, -19302.90, -15530.97, -18478.37, -20591.46, -23128.02, -21453.76, 0.000, 0.000, 0.000, 10:44:04.381, 1583739844381
247, -24695.30, -30292.29, -19220.87, -15457.35, -18039.44, -20565.39, -22976.79, -21254.94, -0.004, -0.018, 0.972, 10:44:04.382, 1583739844382
248, -25061.51, -30356.33, -19275.72, -15485.89, -18344.90, -20582.92, -23177.02, -21400.83, 0.000, 0.000, 0.000, 10:44:04.382, 1583739844382
249, -25477.57, -30371.08, -19359.76, -15586.41, -18868.09, -20621.72, -23352.92, -21619.95, 0.000, 0.000, 0.000, 10:44:04.382, 1583739844382
250, -25561.70, -30367.12, -19390.88, -15611.46, -18992.39, -20623.33, -23374.69, -21683.29, 0.000, 0.000, 0.000, 10:44:04.383, 1583739844383
251, -25070.88, -30307.18, -19296.77, -15526.93, -18474.48, -20584.95, -23127.42, -21449.45, 0.000, 0.000, 0.000, 10:44:04.383, 1583739844383
252, -24701.49, -30282.10, -19215.01, -15457.71, -18032.54, -20560.63, -22974.31, -21252.04, 0.000, 0.000, 0.000, 10:44:04.383, 1583739844383
253, -25066.34, -30330.67, -19260.68, -15473.49, -18329.01, -20568.32, -23165.37, -21390.75, 0.000, 0.000, 0.000, 10:44:04.383, 1583739844383
254, -25480.36, -30359.21, -19346.71, -15572.59, -18855.80, -20608.13, -23345.08, -21612.93, 0.000, 0.000, 0.000, 10:44:04.383, 1583739844383
255, -25564.31, -30364.82, -19379.63, -15598.61, -18985.88, -20613.36, -23369.11, -21680.23, 0.000, 0.000, 0.000, 10:44:04.383, 1583739844383
0, -25071.32, -30314.26, -19290.54, -15520.36, -18472.91, -20581.57, -23124.20, -21451.15, 0.000, 0.000, 0.000, 10:44:04.383, 1583739844383
1, -24695.08, -30280.78, -19210.68, -15451.98, -18032.98, -20558.57, -22972.50, -21251.95, -0.004, -0.018, 0.972, 10:44:04.383, 1583739844383
2, -25067.90, -30334.80, -19271.14, -15486.56, -18340.37, -20579.61, -23173.86, -21399.85, 0.000, 0.000, 0.000, 10:44:04.384, 1583739844384
3, -25485.37, -30373.16, -19358.98, -15592.26, -18871.29, -20623.91, -23354.67, -21625.22, 0.000, 0.000, 0.000, 10:44:04.384, 1583739844384
4, -25569.01, -30368.58, -19387.08, -15608.22, -18996.46, -20624.11, -23374.80, -21688.25, 0.000, 0.000, 0.000, 10:44:04.384, 1583739844384
5, -25079.55, -30316.50, -19295.52, -15521.56, -18480.31, -20587.99, -23130.08, -21455.71, 0.000, 0.000, 0.000, 10:44:04.384, 1583739844384
6, -24697.69, -30282.68, -19212.75, -15447.45, -18037.32, -20560.94, -22974.33, -21252.82, 0.000, 0.000, 0.000, 10:44:04.384, 1583739844384
7, -25066.12, -30340.06, -19271.09, -15474.18, -18340.30, -20578.65, -23174.15, -21397.41, 0.000, 0.000, 0.000, 10:44:04.384, 1583739844384
8, -25481.14, -30361.42, -19355.52, -15578.45, -18860.98, -20620.58, -23350.73, -21619.01, 0.000, 0.000, 0.000, 10:44:04.384, 1583739844384
9, -25565.41, -30355.21, -19391.21, -15613.50, -18994.33, -20632.36, -23376.71, -21691.56, 0.000, 0.000, 0.000, 10:44:04.384, 1583739844384
10, -25072.11, -30294.32, -19296.86, -15534.77, -18481.09, -20599.23, -23131.30, -21462.48, 0.000, 0.000, 0.000, 10:44:04.385, 1583739844385
11, -24692.22, -30276.15, -19212.82, -15459.61, -18036.36, -20572.70, -22974.53, -21259.50, 0.000, 0.000, 0.000, 10:44:04.385, 1583739844385
12, -25061.18, -30342.51, -19270.96, -15484.46, -18339.79, -20587.83, -23171.58, -21402.24, -0.002, -0.020, 0.976, 10:44:04.385, 1583739844385
13, -25476.94, -30368.51, -19357.82, -15584.55, -18863.66, -20627.29, -23350.06, -21624.13, 0.000, 0.000, 0.000, 10:44:04.385, 1583739844385
14, -25565.50, -30361.76, -19393.31, -15607.46, -18998.96, -20632.40, -23378.78, -21693.80, 0.000, 0.000, 0.000, 10:44:04.385, 1583739844385
15, -25067.73, -30308.58, -19300.11, -15523.55, -18486.17, -20595.30, -23133.59, -21460.33, 0.000, 0.000, 0.000, 10:44:04.385, 1583739844385
16, -24692.02, -30277.78, -19218.01, -15455.94, -18041.81, -20571.99, -22979.07, -21259.41, 0.000, 0.000, 0.000, 10:44:04.386, 1583739844386
17, -25059.79, -30336.61, -19274.15, -15484.55, -18341.21, -20588.13, -23174.04, -21400.48, 0.000, 0.000, 0.000, 10:44:04.386, 1583739844386
18, -25475.80, -30368.29, -19365.24, -15593.63, -18870.73, -20634.30, -23356.10, -21626.74, 0.000, 0.000, 0.000, 10:44:04.386, 1583739844386
19, -25560.87, -30367.30, -19392.24, -15608.20, -19000.61, -20631.20, -23378.38, -21690.15, 0.000, 0.000, 0.000, 10:44:04.386, 1583739844386
20, -25071.82, -30302.46, -19295.57, -15517.76, -18482.84, -20590.09, -23131.13, -21457.52, 0.000, 0.000, 0.000, 10:44:04.386, 1583739844386
21, -24686.96, -30267.59, -19206.14, -15442.39, -18027.73, -20556.65, -22968.14, -21247.08, 0.000, 0.000, 0.000, 10:44:04.386, 1583739844386
22, -25053.09, -30326.71, -19259.92, -15472.64, -18324.47, -20571.27, -23162.13, -21385.75, 0.004, -0.024, 0.972, 10:44:04.387, 1583739844387
23, -25474.17, -30353.58, -19350.73, -15577.76, -18852.82, -20613.29, -23340.88, -21608.08, 0.000, 0.000, 0.000, 10:44:04.387, 1583739844387
24, -25567.31, -30362.92, -19386.03, -15598.37, -18986.17, -20614.59, -23368.01, -21675.85, 0.000, 0.000, 0.000, 10:44:04.387, 1583739844387
25, -25075.44, -30308.88, -19294.43, -15518.57, -18473.63, -20581.11, -23125.83, -21447.57, 0.000, 0.000, 0.000, 10:44:04.387, 1583739844387
26, -24691.84, -30276.13, -19211.81, -15453.12, -18029.59, -20560.61, -22972.32, -21249.40, 0.000, 0.000, 0.000, 10:44:04.387, 1583739844387
27, -25051.66, -30331.90, -19263.80, -15474.98, -18325.72, -20573.21, -23167.22, -21390.26, 0.000, 0.000, 0.000, 10:44:04.387, 1583739844387
28, -25473.43, -30352.68, -19348.99, -15574.36, -18852.44, -20610.63, -23343.56, -21608.97, 0.000, 0.000, 0.000, 10:44:04.388, 1583739844388
29, -25568.23, -30365.94, -19379.23, -15598.52, -18983.74, -20613.31, -23367.54, -21674.93, 0.000, 0.000, 0.000, 10:44:04.388, 1583739844388
30, -25080.47, -30315.36, -19290.14, -15521.27, -18474.45, -20581.84, -23126.14, -21449.56, 0.000, 0.000, 0.000, 10:44:04.388, 1583739844388
31, -24697.07, -30284.40, -19208.89, -15453.46, -18026.28, -20559.27, -22969.50, -21250.34, 0.000, 0.000, 0.000, 10:44:04.388, 1583739844388
32, -25058.76, -30344.37, -19267.00, -15480.88, -18323.58, -20575.43, -23166.40, -21393.10, 0.000, -0.022, 0.974, 10:44:04.388, 1583739844388
33, -25485.70, -30367.28, -19356.59, -15582.99, -18854.30, -20618.14, -23349.37, -21617.27, 0.000, 0.000, 0.000, 10:44:04.388, 1583739844388
34, -25578.89, -30363.97, -19385.13, -15604.45, -18990.82, -20621.99, -23373.82, -21685.88, 0.000, 0.000, 0.000, 10:44:04.389, 1583739844389
35, -25092.04, -30305.52, -19295.05, -15531.09, -18487.48, -20592.86, -23133.43, -21462.30, 0.000, 0.000, 0.000, 10:44:04.389, 1583739844389
36, -24697.92, -30282.12, -19210.47, -15453.53, -18034.26, -20563.74, -22970.31, -21254.29, 0.000, 0.000, 0.000, 10:44:04.389, 1583739844389
37, -25057.47, -30344.21, -19268.12, -15473.62, -18329.17, -20577.51, -23164.47, -21393.95, 0.000, 0.000, 0.000, 10:44:04.389, 1583739844389
38, -25476.49, -30377.27, -19356.32, -15570.92, -18855.98, -20618.08, -23345.59, -21616.46, 0.000, 0.000, 0.000, 10:44:04.389, 1583739844389
39, -25568.90, -30366.21, -19381.24, -15594.59, -18988.48, -20619.48, -23368.12, -21683.45, 0.000, 0.000, 0.000, 10:44:04.389, 1583739844389
40, -25090.86, -30307.87, -19289.49, -15521.30, -18481.27, -20589.06, -23128.31, -21459.60, 0.000, 0.000, 0.000, 10:44:04.390, 1583739844390
41, -24704.62, -30281.31, -19205.96, -15452.72, -18029.21, -20564.45, -22969.43, -21255.10, 0.000, 0.000, 0.000, 10:44:04.390, 1583739844390
42, -25057.80, -30344.06, -19258.02, -15473.96, -18320.88, -20576.14, -23161.55, -21391.67, 0.004, -0.020, 0.974, 10:44:04.390, 1583739844390
43, -25477.30, -30373.03, -19347.60, -15579.10, -18852.98, -20618.79, -23343.18, -21615.19, 0.000, 0.000, 0.000, 10:44:04.390, 1583739844390
44, -25569.99, -30359.41, -19380.57, -15602.72, -18989.79, -20621.65, -23369.51, -21682.51, 0.000, 0.000, 0.000, 10:44:04.390, 1583739844390
45, -25080.22, -30290.66, -19293.62, -15524.16, -18483.80, -20588.57, -23127.93, -21455.26, 0.000, 0.000, 0.000, 10:44:04.391, 1583739844391
46, -24691.84, -30267.23, -19212.15, -15450.69, -18034.39, -20559.60, -22967.49, -21247.17, 0.000, 0.000, 0.000, 10:44:04.391, 1583739844391
47, -25052.10, -30333.69, -19266.40, -15469.93, -18323.38, -20568.99, -23162.02, -21381.43, 0.000, 0.000, 0.000, 10:44:04.391, 1583739844391
48, -25470.64, -30367.97, -19345.57, -15564.95, -18844.67, -20602.32, -23339.96, -21597.71, 0.000, 0.000, 0.000, 10:44:04.391, 1583739844391
49, -25563.15, -30359.68, -19369.60, -15585.56, -18977.77, -20599.37, -23361.62, -21661.32, 0.000, 0.000, 0.000, 10:44:04.392, 1583739844392
50, -25086.50, -30308.34, -19282.67, -15510.14, -18475.82, -20568.61, -23122.79, -21438.14, 0.000, 0.000, 0.000, 10:44:04.392, 1583739844392
51, -24690.34, -30273.60, -19195.21, -15437.50, -18018.70, -20541.61, -22958.01, -21229.87, 0.000, 0.000, 0.000, 10:44:04.392, 1583739844392
52, -25045.73, -30326.24, -19258.20, -15472.30, -18312.02, -20564.34, -23156.56, -21374.57, 0.006, -0.020, 0.976, 10:44:04.392, 1583739844392
53, -25473.08, -30355.28, -19353.35, -15576.15, -18845.78, -20609.83, -23344.07, -21601.66, 0.000, 0.000, 0.000, 10:44:04.392, 1583739844392
54, -25569.59, -30349.51, -19376.91, -15585.94, -18980.45, -20603.48, -23364.90, -21663.89, 0.000, 0.000, 0.000, 10:44:04.392, 1583739844392
55, -25083.19, -30301.41, -19289.94, -15509.07, -18478.52, -20571.54, -23129.05, -21442.12, 0.000, 0.000, 0.000, 10:44:04.393, 1583739844393
56, -24694.32, -30276.46, -19214.92, -15450.89, -18032.25, -20555.87, -22974.73, -21244.66, 0.000, 0.000, 0.000, 10:44:04.393, 1583739844393
57, -25054.40, -30336.99, -19268.41, -15474.56, -18321.77, -20571.18, -23169.08, -21383.35, 0.000, 0.000, 0.000, 10:44:04.393, 1583739844393
58, -25482.04, -30369.09, -19356.28, -15574.78, -18850.03, -20613.09, -23353.01, -21607.36, 0.000, 0.000, 0.000, 10:44:04.393, 1583739844393
59, -25581.01, -30375.08, -19383.48, -15596.00, -18986.35, -20614.54, -23377.00, -21677.30, 0.000, 0.000, 0.000, 10:44:04.393, 1583739844393
60, -25091.75, -30315.83, -19287.68, -15513.34, -18477.45, -20577.84, -23130.17, -21449.11, 0.000, 0.000, 0.000, 10:44:04.393, 1583739844393
61, -24694.81, -30273.63, -19199.90, -15441.70, -18020.24, -20550.55, -22963.78, -21241.22, 0.000, 0.000, 0.000, 10:44:04.394, 1583739844394
62, -25046.63, -30324.97, -19256.47, -15467.67, -18308.40, -20565.88, -23155.11, -21376.96, 0.010, -0.022, 0.970, 10:44:04.394, 1583739844394
63, -25468.96, -30358.18, -19350.04, -15573.93, -18841.94, -20611.53, -23339.40, -21603.23, 0.000, 0.000, 0.000, 10:44:04.394, 1583739844394
64, -25563.80, -30359.86, -19378.96, -15599.08, -18983.94, -20615.84, -23365.48, -21674.80, 0.000, 0.000, 0.000, 10:44:04.394, 1583739844394
65, -25085.52, -30304.70, -19287.19, -15522.77, -18478.59, -20584.75, -23128.29, -21453.81, 0.000, 0.000, 0.000, 10:44:04.394, 1583739844394
66, -24699.37, -30272.24, -19201.64, -15453.10, -18022.70, -20559.07, -22965.01, -21247.34, 0.000, 0.000, 0.000, 10:44:04.394, 1583739844394
67, -25051.03, -30324.10, -19255.09, -15472.08, -18307.84, -20570.38, -23154.55, -21380.49, 0.000, 0.000, 0.000, 10:44:04.394, 1583739844394
68, -25473.48, -30358.12, -19343.51, -15569.06, -18836.06, -20609.34, -23337.03, -21601.40, 0.000, 0.000, 0.000, 10:44:04.395, 1583739844395
69, -25571.76, -30363.93, -19376.53, -15595.84, -18979.40, -20613.61, -23366.22, -21672.97, 0.000, 0.000, 0.000, 10:44:04.395, 1583739844395
70, -25085.83, -30307.09, -19284.23, -15518.37, -18477.43, -20579.81, -23124.15, -21445.87, 0.000, 0.000, 0.000, 10:44:04.395, 1583739844395
71, -24686.58, -30271.01, -19201.29, -15445.19, -18024.76, -20553.37, -22961.41, -21238.94, 0.000, 0.000, 0.000, 10:44:04.395, 1583739844395
72, -25042.69, -30333.89, -19262.42, -15472.93, -18316.07, -20570.64, -23160.07, -21377.41, 0.006, -0.024, 0.972, 10:44:04.395, 1583739844395
73, -25466.53, -30363.99, -19347.83, -15573.26, -18840.20, -20608.62, -23340.23, -21596.88, 0.000, 0.000, 0.000, 10:44:04.395, 1583739844395
74, -25563.53, -30358.63, -19377.29, -15593.45, -18980.63, -20608.58, -23367.50, -21665.37, 0.000, 0.000, 0.000, 10:44:04.396, 1583739844396
75, -25083.98, -30301.39, -19290.74, -15509.70, -18481.96, -20571.70, -23129.58, -21439.97, 0.000, 0.000, 0.000, 10:44:04.396, 1583739844396
76, -24687.84, -30272.67, -19208.06, -15440.05, -18026.88, -20545.66, -22966.28, -21234.38, 0.000, 0.000, 0.000, 10:44:04.396, 1583739844396
77, -25040.19, -30327.49, -19260.25, -15465.06, -18310.46, -20559.58, -23156.72, -21371.17, 0.000, 0.000, 0.000, 10:44:04.396, 1583739844396
78, -25467.73, -30355.54, -19350.71, -15568.91, -18843.35, -20604.24, -23344.65, -21597.30, 0.000, 0.000, 0.000, 10:44:04.396, 1583739844396
79, -25575.56, -30359.23, -19381.53, -15595.86, -18990.76, -20607.64, -23374.25, -21669.32, 0.000, 0.000, 0.000, 10:44:04.396, 1583739844396
80, -25093.79, -30307.87, -19287.74, -15514.19, -18485.54, -20569.46, -23129.47, -21440.04, 0.000, 0.000, 0.000, 10:44:04.396, 1583739844396
81, -24691.01, -30273.80, -19201.73, -15441.90, -18023.78, -20543.13, -22962.28, -21229.22, 0.000, 0.000, 0.000, 10:44:04.397, 1583739844397
82, -25045.84, -30331.12, -19260.41, -15469.89, -18309.79, -20559.96, -23156.76, -21365.47, 0.006, -0.024, 0.972, 10:44:04.397, 1583739844397
83, -25468.67, -30358.16, -19343.33, -15569.80, -18835.75, -20600.55, -23338.01, -21588.16, 0.000, 0.000, 0.000, 10:44:04.397, 1583739844397
84, -25563.82, -30353.51, -19370.09, -15585.69, -18977.95, -20598.94, -23362.27, -21655.93, 0.000, 0.000, 0.000, 10:44:04.397, 1583739844397
85, -25083.95, -30299.64, -19276.99, -15501.20, -18474.99, -20561.53, -23120.55, -21429.91, 0.000, 0.000, 0.000, 10:44:04.397, 1583739844397
86, -24690.05, -30271.99, -19194.38, -15437.70, -18016.89, -20542.46, -22958.46, -21225.69, 0.000, 0.000, 0.000, 10:44:04.397, 1583739844397
87, -25041.75, -30329.33, -19250.80, -15465.22, -18303.48, -20562.26, -23152.47, -21365.85, 0.000, 0.000, 0.000, 10:44:04.398, 1583739844398
88, -25466.84, -30355.99, -19341.05, -15569.64, -18837.27, -20605.69, -23335.24, -21593.26, 0.000, 0.000, 0.000, 10:44:04.398, 1583739844398
89, -25570.55, -30360.28, -19375.99, -15603.77, -18987.02, -20612.69, -23363.27, -21670.33, 0.000, 0.000, 0.000, 10:44:04.398, 1583739844398
90, -25087.71, -30309.17, -19289.53, -15530.10, -18488.74, -20582.31, -23126.14, -21450.28, 0.000, 0.000, 0.000, 10:44:04.398, 1583739844398
91, -24687.52, -30268.37, -19201.94, -15446.35, -18022.08, -20549.99, -22956.40, -21236.28, 0.000, 0.000, 0.000, 10:44:04.855, 1583739844855
92, -25044.12, -30327.43, -19259.74, -15475.03, -18306.06, -20569.28, -23148.79, -21375.40, 0.006, -0.024, 0.974, 10:44:04.856, 1583739844856
93, -25471.47, -30364.13, -19351.13, -15584.84, -18837.13, -20618.12, -23336.05, -21605.46, 0.000, 0.000, 0.000, 10:44:04.856, 1583739844856
94, -25572.43, -30361.74, -19384.13, -15607.71, -18984.81, -20622.14, -23367.21, -21679.00, 0.000, 0.000, 0.000, 10:44:04.856, 1583739844856
95, -25090.53, -30299.22, -19290.20, -15516.45, -18481.45, -20580.48, -23124.71, -21450.07, 0.000, 0.000, 0.000, 10:44:04.856, 1583739844856
96, -24684.73, -30269.80, -19203.17, -15441.95, -18016.85, -20553.63, -22956.18, -21238.60, 0.000, 0.000, 0.000, 10:44:04.856, 1583739844856
97, -25036.21, -30331.14, -19259.13, -15472.15, -18299.95, -20573.62, -23147.80, -21374.35, 0.000, 0.000, 0.000, 10:44:04.856, 1583739844856
98, -25464.02, -30359.41, -19352.54, -15582.54, -18837.42, -20619.91, -23333.34, -21600.59, 0.000, 0.000, 0.000, 10:44:04.856, 1583739844856
99, -25567.00, -30352.30, -19383.63, -15609.16, -18985.21, -20620.27, -23362.40, -21672.50, 0.000, 0.000, 0.000, 10:44:04.856, 1583739844856
100, -25090.75, -30299.85, -19290.14, -15520.36, -18484.65, -20577.22, -23124.02, -21444.62, 0.000, 0.000, 0.000, 10:44:04.857, 1583739844857
101, -24687.75, -30266.81, -19198.18, -15430.95, -18013.67, -20539.98, -22955.22, -21226.82, 0.000, 0.000, 0.000, 10:44:04.857, 1583739844857
102, -25037.17, -30329.06, -19255.49, -15455.58, -18294.50, -20555.69, -23148.16, -21360.53, 0.006, -0.020, 0.972, 10:44:04.857, 1583739844857
103, -25464.49, -30362.14, -19350.37, -15564.08, -18831.39, -20602.59, -23335.09, -21587.16, 0.000, 0.000, 0.000, 10:44:04.857, 1583739844857
104, -25565.10, -30360.06, -19381.17, -15594.01, -18984.50, -20607.55, -23366.60, -21662.91, 0.000, 0.000, 0.000, 10:44:04.857, 1583739844857
105, -25093.43, -30296.25, -19293.33, -15519.53, -18493.01, -20575.54, -23131.93, -21443.73, 0.000, 0.000, 0.000, 10:44:04.857, 1583739844857
106, -24686.29, -30262.81, -19210.50, -15450.06, -18033.99, -20552.56, -22966.80, -21235.10, 0.000, 0.000, 0.000, 10:44:04.857, 1583739844857
107, -25035.03, -30325.01, -19262.26, -15465.89, -18307.73, -20563.65, -23155.38, -21365.72, 0.000, 0.000, 0.000, 10:44:04.857, 1583739844857
108, -25461.92, -30363.10, -19347.42, -15565.33, -18835.77, -20603.64, -23336.94, -21589.26, 0.000, 0.000, 0.000, 10:44:04.858, 1583739844858
109, -25572.50, -30358.74, -19386.03, -15597.05, -18993.42, -20612.69, -23371.03, -21669.23, 0.000, 0.000, 0.000, 10:44:04.858, 1583739844858
110, -25102.04, -30305.70, -19302.50, -15526.06, -18503.15, -20585.38, -23138.99, -21454.63, 0.000, 0.000, 0.000, 10:44:04.858, 1583739844858
111, -24695.03, -30268.80, -19214.50, -15456.95, -18035.89, -20561.35, -22968.56, -21244.80, 0.000, 0.000, 0.000, 10:44:04.858, 1583739844858
112, -25034.00, -30325.44, -19257.84, -15469.82, -18300.87, -20568.25, -23149.30, -21369.96, 0.000, 0.000, 0.000, 10:44:04.858, 1583739844858
113, -25457.43, -30366.07, -19339.78, -15564.88, -18826.07, -20604.62, -23326.32, -21591.14, 0.010, -0.020, 0.982, 10:44:04.858, 1583739844858
114, -25567.47, -30366.54, -19377.15, -15598.23, -18982.38, -20614.70, -23361.21, -21671.76, 0.000, 0.000, 0.000, 10:44:04.858, 1583739844858
115, -25088.49, -30307.87, -19283.70, -15517.30, -18484.78, -20578.54, -23122.25, -21447.75, 0.000, 0.000, 0.000, 10:44:04.858, 1583739844858
116, -24684.21, -30281.90, -19191.56, -15441.93, -18015.08, -20549.43, -22948.56, -21233.44, 0.000, 0.000, 0.000, 10:44:04.859, 1583739844859
117, -25036.50, -30344.37, -19252.00, -15473.04, -18290.77, -20568.83, -23139.73, -21369.41, 0.000, 0.000, 0.000, 10:44:04.862, 1583739844862
118, -25459.37, -30370.03, -19341.57, -15582.21, -18823.12, -20614.72, -23325.41, -21597.44, 0.000, 0.000, 0.000, 10:44:04.862, 1583739844862
119, -25569.79, -30363.79, -19371.05, -15601.34, -18978.24, -20614.30, -23355.49, -21670.96, 0.000, 0.000, 0.000, 10:44:04.862, 1583739844862
120, -25095.26, -30303.09, -19280.59, -15512.42, -18485.09, -20576.21, -23120.20, -21447.88, 0.000, 0.000, 0.000, 10:44:04.862, 1583739844862
121, -24685.69, -30272.40, -19195.34, -15443.51, -18019.39, -20554.71, -22952.04, -21237.42, 0.000, 0.000, 0.000, 10:44:04.863, 1583739844863
122, -25029.97, -30336.48, -19254.26, -15471.14, -18297.38, -20575.76, -23145.10, -21371.89, 0.000, 0.000, 0.000, 10:44:04.863, 1583739844863
123, -25446.25, -30352.91, -19344.45, -15568.48, -18830.14, -20615.73, -23329.70, -21592.97, 0.008, -0.022, 0.978, 10:44:04.863, 1583739844863
124, -25560.02, -30342.25, -19379.34, -15597.76, -18988.46, -20620.00, -23363.29, -21669.81, 0.000, 0.000, 0.000, 10:44:04.863, 1583739844863
125, -25096.61, -30308.32, -19294.14, -15524.67, -18500.78, -20589.13, -23130.34, -21454.52, 0.000, 0.000, 0.000, 10:44:04.863, 1583739844863
126, -24688.33, -30286.77, -19206.85, -15449.37, -18031.96, -20561.97, -22960.63, -21240.44, 0.000, 0.000, 0.000, 10:44:04.863, 1583739844863
127, -25030.09, -30345.62, -19259.29, -15467.45, -18301.81, -20572.93, -23149.66, -21368.00, 0.000, 0.000, 0.000, 10:44:04.864, 1583739844864
128, -25460.00, -30366.19, -19346.93, -15567.27, -18833.45, -20611.66, -23333.54, -21589.97, 0.000, 0.000, 0.000, 10:44:04.864, 1583739844864
129, -25571.09, -30365.36, -19377.24, -15591.71, -18986.49, -20612.13, -23364.70, -21664.18, 0.000, 0.000, 0.000, 10:44:04.864, 1583739844864
130, -25099.69, -30312.03, -19288.44, -15509.67, -18494.77, -20575.52, -23128.51, -21442.72, 0.000, 0.000, 0.000, 10:44:04.864, 1583739844864
131, -24688.55, -30276.80, -19204.91, -15444.32, -18029.27, -20554.35, -22961.30, -21232.12, 0.000, 0.000, 0.000, 10:44:04.864, 1583739844864
132, -25020.56, -30328.34, -19255.27, -15466.36, -18294.79, -20566.89, -23144.94, -21359.84, 0.000, 0.000, 0.000, 10:44:04.864, 1583739844864
133, -25451.24, -30360.17, -19347.20, -15566.47, -18827.72, -20609.51, -23332.63, -21585.28, 0.008, -0.022, 0.974, 10:44:04.865, 1583739844865
134, -25563.04, -30360.33, -19378.09, -15591.68, -18985.95, -20613.52, -23367.05, -21663.69, 0.000, 0.000, 0.000, 10:44:04.865, 1583739844865
135, -25091.08, -30298.95, -19280.05, -15500.82, -18490.46, -20570.60, -23128.78, -21440.26, 0.000, 0.000, 0.000, 10:44:04.865, 1583739844865
136, -24671.16, -30262.32, -19188.53, -15429.61, -18015.55, -20541.54, -22950.53, -21221.68, 0.000, 0.000, 0.000, 10:44:04.865, 1583739844865
137, -25023.20, -30323.25, -19245.83, -15460.10, -18287.84, -20560.32, -23140.22, -21355.62, 0.000, 0.000, 0.000, 10:44:04.865, 1583739844865
138, -25460.94, -30362.03, -19338.04, -15564.21, -18822.13, -20605.40, -23326.82, -21584.07, 0.000, 0.000, 0.000, 10:44:04.866, 1583739844866
139, -25571.36, -30366.72, -19371.18, -15593.63, -18982.24, -20611.59, -23359.58, -21664.79, 0.000, 0.000, 0.000, 10:44:04.866, 1583739844866
140, -25095.49, -30310.55, -19277.64, -15508.51, -18487.64, -20573.69, -23118.95, -21444.96, 0.000, 0.000, 0.000, 10:44:04.868, 1583739844868
141, -24681.51, -30279.46, -19193.51, -15442.46, -18018.90, -20553.57, -22946.63, -21234.20, 0.000, 0.000, 0.000, 10:44:04.868, 1583739844868
142, -25019.33, -30337.51, -19248.29, -15468.68, -18284.60, -20570.58, -23131.06, -21362.77, 0.000, 0.000, 0.000, 10:44:04.868, 1583739844868
143, -25451.82, -30366.21, -19336.92, -15569.51, -18816.30, -20611.01, -23316.60, -21586.98, 0.008, -0.022, 0.974, 10:44:04.868, 1583739844868
144, -25564.70, -30365.16, -19370.96, -15594.95, -18979.56, -20613.05, -23352.25, -21665.59, 0.000, 0.000, 0.000, 10:44:04.869, 1583739844869
145, -25097.54, -30311.02, -19283.01, -15514.12, -18489.25, -20576.88, -23119.15, -21447.10, 0.000, 0.000, 0.000, 10:44:04.869, 1583739844869
146, -24679.83, -30270.61, -19194.31, -15441.32, -18014.12, -20551.18, -22946.50, -21231.00, 0.000, 0.000, 0.000, 10:44:04.869, 1583739844869
147, -25016.05, -30327.34, -19251.87, -15471.05, -18285.56, -20571.58, -23138.46, -21363.26, 0.000, 0.000, 0.000, 10:44:04.869, 1583739844869
148, -25447.84, -30363.75, -19343.11, -15575.52, -18823.39, -20615.51, -23324.54, -21587.56, 0.000, 0.000, 0.000, 10:44:04.869, 1583739844869
149, -25563.11, -30359.19, -19378.38, -15600.89, -18985.35, -20619.73, -23360.39, -21664.45, 0.000, 0.000, 0.000, 10:44:04.869, 1583739844869
150, -25101.10, -30305.48, -19290.87, -15520.60, -18497.79, -20584.55, -23126.84, -21446.59, 0.000, 0.000, 0.000, 10:44:04.869, 1583739844869
151, -24681.18, -30275.10, -19199.77, -15446.60, -18020.94, -20555.69, -22947.57, -21228.43, 0.000, 0.000, 0.000, 10:44:04.870, 1583739844870
152, -25020.63, -30336.50, -19251.87, -15465.82, -18282.09, -20568.19, -23132.09, -21356.62, 0.000, 0.000, 0.000, 10:44:04.870, 1583739844870
153, -25449.40, -30367.88, -19334.06, -15558.00, -18810.15, -20601.92, -23314.68, -21575.31, 0.010, -0.022, 0.978, 10:44:04.870, 1583739844870
154, -25567.87, -30366.34, -19369.06, -15590.23, -18977.12, -20606.70, -23351.49, -21655.51, 0.000, 0.000, 0.000, 10:44:04.870, 1583739844870
155, -25103.49, -30308.45, -19283.21, -15516.83, -18493.07, -20574.42, -23119.75, -21440.98, 0.000, 0.000, 0.000, 10:44:04.870, 1583739844870
156, -24679.28, -30272.20, -19191.65, -15439.51, -18015.19, -20545.05, -22943.86, -21222.24, 0.000, 0.000, 0.000, 10:44:04.870, 1583739844870
157, -25017.72, -30335.16, -19245.48, -15461.48, -18280.22, -20559.94, -23134.21, -21351.75, 0.000, 0.000, 0.000, 10:44:04.870, 1583739844870
158, -25454.30, -30368.80, -19337.63, -15562.33, -18817.26, -20602.16, -23323.75, -21577.66, 0.000, 0.000, 0.000, 10:44:04.870, 1583739844870
159, -25568.58, -30368.46, -19372.41, -15590.56, -18982.67, -20607.01, -23358.96, -21655.87, 0.000, 0.000, 0.000, 10:44:04.870, 1583739844870
160, -25102.71, -30304.40, -19284.79, -15511.71, -18497.05, -20571.88, -23125.87, -21438.50, 0.000, 0.000, 0.000, 10:44:04.870, 1583739844870
161, -24688.57, -30272.40, -19199.57, -15443.67, -18024.04, -20548.18, -22952.74, -21225.95, 0.000, 0.000, 0.000, 10:44:04.871, 1583739844871
162, -25013.57, -30329.53, -19252.21, -15466.67, -18285.71, -20562.53, -23137.27, -21352.91, 0.000, 0.000, 0.000, 10:44:04.871, 1583739844871
163, -25448.27, -30362.56, -19342.97, -15571.34, -18822.65, -20606.32, -23325.70, -21581.19, 0.008, -0.016, 0.970, 10:44:04.871, 1583739844871
164, -25572.94, -30361.22, -19381.49, -15598.59, -18993.13, -20612.00, -23364.43, -21663.64, 0.000, 0.000, 0.000, 10:44:04.871, 1583739844871
165, -25108.14, -30309.12, -19294.56, -15519.31, -18505.68, -20577.15, -23133.43, -21448.42, 0.000, 0.000, 0.000, 10:44:04.871, 1583739844871
166, -24683.77, -30277.61, -19196.44, -15439.62, -18020.09, -20545.57, -22951.82, -21226.09, 0.000, 0.000, 0.000, 10:44:04.871, 1583739844871
167, -25018.84, -30326.44, -19243.89, -15458.53, -18278.43, -20557.66, -23133.25, -21350.86, 0.000, 0.000, 0.000, 10:44:04.871, 1583739844871
168, -25453.61, -30350.27, -19339.20, -15572.97, -18818.65, -20607.50, -23322.44, -21582.31, 0.000, 0.000, 0.000, 10:44:04.871, 1583739844871
169, -25571.76, -30359.05, -19375.21, -15603.06, -18987.90, -20614.52, -23361.01, -21666.15, 0.000, 0.000, 0.000, 10:44:04.871, 1583739844871
170, -25112.05, -30314.24, -19286.45, -15516.00, -18500.52, -20576.08, -23125.85, -21447.86, 0.000, 0.000, 0.000, 10:44:04.872, 1583739844872
171, -24693.36, -30283.91, -19204.42, -15448.56, -18025.21, -20555.07, -22951.93, -21233.58, 0.000, 0.000, 0.000, 10:44:04.872, 1583739844872
172, -25021.46, -30332.95, -19250.33, -15464.08, -18280.13, -20565.48, -23133.92, -21355.91, 0.000, 0.000, 0.000, 10:44:04.872, 1583739844872
173, -25454.12, -30363.99, -19334.46, -15560.39, -18810.76, -20603.19, -23316.58, -21578.33, 0.004, -0.018, 0.974, 10:44:04.872, 1583739844872
174, -25576.36, -30365.11, -19370.40, -15594.74, -18981.01, -20610.68, -23354.85, -21662.21, 0.000, 0.000, 0.000, 10:44:04.872, 1583739844872
175, -25108.79, -30309.41, -19281.49, -15515.06, -18496.04, -20576.28, -23122.28, -21446.86, 0.000, 0.000, 0.000, 10:44:04.872, 1583739844872
176, -24682.27, -30280.91, -19194.09, -15441.97, -18017.83, -20551.22, -22943.08, -21229.31, 0.000, 0.000, 0.000, 10:44:04.872, 1583739844872
177, -25024.83, -30335.25, -19251.56, -15468.90, -18281.04, -20570.13, -23132.38, -21358.66, 0.000, 0.000, 0.000, 10:44:04.873, 1583739844873
178, -25460.58, -30368.11, -19344.81, -15573.89, -18818.96, -20615.82, -23324.47, -21588.57, 0.000, 0.000, 0.000, 10:44:04.873, 1583739844873
179, -25574.24, -30366.10, -19377.44, -15599.71, -18989.57, -20617.52, -23360.05, -21667.36, 0.000, 0.000, 0.000, 10:44:04.873, 1583739844873
180, -25120.61, -30318.84, -19296.08, -15525.50, -18509.75, -20586.78, -23134.21, -21456.65, 0.000, 0.000, 0.000, 10:44:04.873, 1583739844873
181, -24696.26, -30282.57, -19204.75, -15446.78, -18028.22, -20555.89, -22953.61, -21234.00, 0.000, 0.000, 0.000, 10:44:04.873, 1583739844873
182, -25026.40, -30335.65, -19252.70, -15463.96, -18284.24, -20566.26, -23135.93, -21357.40, 0.000, 0.000, 0.000, 10:44:04.873, 1583739844873
183, -25454.10, -30365.87, -19339.58, -15565.75, -18815.85, -20603.55, -23319.17, -21579.07, 0.002, -0.022, 0.970, 10:44:04.873, 1583739844873
184, -25568.85, -30367.50, -19382.13, -15603.24, -18990.64, -20613.00, -23360.23, -21665.70, 0.000, 0.000, 0.000, 10:44:04.873, 1583739844873
185, -25110.55, -30311.29, -19294.43, -15519.98, -18509.17, -20576.99, -23127.84, -21451.01, 0.000, 0.000, 0.000, 10:44:04.873, 1583739844873
186, -24682.74, -30276.31, -19200.75, -15448.21, -18023.15, -20550.66, -22945.99, -21231.27, 0.000, 0.000, 0.000, 10:44:04.873, 1583739844873
187, -25013.63, -30333.82, -19248.61, -15459.94, -18274.70, -20558.60, -23127.84, -21352.13, 0.000, 0.000, 0.000, 10:44:04.874, 1583739844874
188, -25451.30, -30371.06, -19338.84, -15560.41, -18810.13, -20598.41, -23317.38, -21576.56, 0.000, 0.000, 0.000, 10:44:04.874, 1583739844874
189, -25577.88, -30375.06, -19381.51, -15596.20, -18987.94, -20607.57, -23361.46, -21662.59, 0.000, 0.000, 0.000, 10:44:04.874, 1583739844874
190, -25116.99, -30317.19, -19293.49, -15514.81, -18504.47, -20570.33, -23128.15, -21445.92, 0.000, 0.000, 0.000, 10:44:04.874, 1583739844874
191, -24691.39, -30280.80, -19195.45, -15434.15, -18017.61, -20538.23, -22944.33, -21221.86, 0.000, 0.000, 0.000, 10:44:04.874, 1583739844874
192, -25015.87, -30333.28, -19242.46, -15451.72, -18269.62, -20550.53, -23125.03, -21344.37, 0.000, 0.000, 0.000, 10:44:04.874, 1583739844874
193, -25453.43, -30367.06, -19339.15, -15564.06, -18810.15, -20600.62, -23318.37, -21578.64, 0.006, -0.022, 0.974, 10:44:04.874, 1583739844874
194, -25578.46, -30371.42, -19380.86, -15601.61, -18988.79, -20611.17, -23358.49, -21666.60, 0.000, 0.000, 0.000, 10:44:04.874, 1583739844874
195, -25120.21, -30317.03, -19294.12, -15516.94, -18509.79, -20576.46, -23128.29, -21452.58, 0.000, 0.000, 0.000, 10:44:04.874, 1583739844874
196, -24699.44, -30284.87, -19201.13, -15439.49, -18024.65, -20549.66, -22948.74, -21232.79, 0.000, 0.000, 0.000, 10:44:04.875, 1583739844875
197, -25022.08, -30328.99, -19246.57, -15461.75, -18272.01, -20562.98, -23128.49, -21352.24, 0.000, 0.000, 0.000, 10:44:04.875, 1583739844875
198, -25455.66, -30363.82, -19338.64, -15566.45, -18808.43, -20606.01, -23318.75, -21578.87, 0.000, 0.000, 0.000, 10:44:04.875, 1583739844875
199, -25581.73, -30376.40, -19378.11, -15603.66, -18989.15, -20616.00, -23360.72, -21667.67, 0.000, 0.000, 0.000, 10:44:04.875, 1583739844875
200, -25130.76, -30319.29, -19287.34, -15518.01, -18509.63, -20577.26, -23128.82, -21452.40, 0.000, 0.000, 0.000, 10:44:04.875, 1583739844875
201, -24699.91, -30285.58, -19192.35, -15438.51, -18017.12, -20546.21, -22943.10, -21226.67, 0.000, 0.000, 0.000, 10:44:04.875, 1583739844875
202, -25026.33, -30350.00, -19246.79, -15461.93, -18271.14, -20562.35, -23127.46, -21350.36, 0.000, 0.000, 0.000, 10:44:04.876, 1583739844876
203, -25465.03, -30382.48, -19339.42, -15561.33, -18809.91, -20604.42, -23319.66, -21577.55, 0.000, 0.000, 0.000, 10:44:04.876, 1583739844876
204, -25588.86, -30377.67, -19375.25, -15592.67, -18986.85, -20611.06, -23360.52, -21661.30, 0.004, -0.018, 0.962, 10:44:04.876, 1583739844876
205, -25128.93, -30320.54, -19291.68, -15521.59, -18512.21, -20581.17, -23134.64, -21452.11, 0.000, 0.000, 0.000, 10:44:04.876, 1583739844876
206, -24695.14, -30281.40, -19196.66, -15444.47, -18023.08, -20552.92, -22952.09, -21228.50, 0.000, 0.000, 0.000, 10:44:04.876, 1583739844876
207, -25015.98, -30336.12, -19246.46, -15458.20, -18272.15, -20563.63, -23132.80, -21346.83, 0.000, 0.000, 0.000, 10:44:04.876, 1583739844876
208, -25454.79, -30368.02, -19338.44, -15558.92, -18810.51, -20604.98, -23322.05, -21573.88, 0.000, 0.000, 0.000, 10:44:04.876, 1583739844876
209, -25585.08, -30367.95, -19372.97, -15584.84, -18989.04, -20606.52, -23360.77, -21657.74, 0.000, 0.000, 0.000, 10:44:04.876, 1583739844876
210, -25131.72, -30311.36, -19284.68, -15507.91, -18514.02, -20572.68, -23131.66, -21446.43, 0.000, 0.000, 0.000, 10:44:04.876, 1583739844876
211, -24699.66, -30271.86, -19197.04, -15436.61, -18027.29, -20548.54, -22950.05, -21225.13, 0.000, 0.000, 0.000, 10:44:05.335, 1583739845335
212, -25013.99, -30317.70, -19248.29, -15457.39, -18272.26, -20562.20, -23128.60, -21345.56, 0.000, 0.000, 0.000, 10:44:05.336, 1583739845336
213, -25458.21, -30366.54, -19343.51, -15568.71, -18812.35, -20610.23, -23323.08, -21576.36, 0.000, 0.000, 0.000, 10:44:05.336, 1583739845336
214, -25589.64, -30384.27, -19383.86, -15607.44, -18995.14, -20619.91, -23369.15, -21666.37, 0.002, -0.020, 0.966, 10:44:05.336, 1583739845336
215, -25135.47, -30323.69, -19299.57, -15525.99, -18520.74, -20583.25, -23140.80, -21454.61, 0.000, 0.000, 0.000, 10:44:05.336, 1583739845336
216, -24698.14, -30284.91, -19204.78, -15444.65, -18029.30, -20552.72, -22954.39, -21228.66, 0.000, 0.000, 0.000, 10:44:05.339, 1583739845339
217, -25015.71, -30341.87, -19247.11, -15459.52, -18271.57, -20561.97, -23131.24, -21345.74, 0.000, 0.000, 0.000, 10:44:05.339, 1583739845339
218, -25447.88, -30369.72, -19331.06, -15556.25, -18801.46, -20597.27, -23312.69, -21564.67, 0.000, 0.000, 0.000, 10:44:05.339, 1583739845339
219, -25584.50, -30373.54, -19374.69, -15593.78, -18985.79, -20607.79, -23358.82, -21654.79, 0.000, 0.000, 0.000, 10:44:05.339, 1583739845339
220, -25137.55, -30320.34, -19290.65, -15515.62, -18513.88, -20574.36, -23134.90, -21446.72, 0.000, 0.000, 0.000, 10:44:05.339, 1583739845339
221, -24694.09, -30276.24, -19192.86, -15434.80, -18017.72, -20543.51, -22942.99, -21218.24, 0.000, 0.000, 0.000, 10:44:05.340, 1583739845340
222, -25012.18, -30334.31, -19243.64, -15457.01, -18265.42, -20559.09, -23121.09, -21337.73, 0.000, 0.000, 0.000, 10:44:05.342, 1583739845342
223, -25460.63, -30376.76, -19340.63, -15564.55, -18806.67, -20606.61, -23316.98, -21569.57, 0.000, 0.000, 0.000, 10:44:05.343, 1583739845343
224, -25587.99, -30370.05, -19380.44, -15597.85, -18989.68, -20611.82, -23359.76, -21655.51, 0.000, -0.022, 0.968, 10:44:05.343, 1583739845343
225, -25137.08, -30314.08, -19292.57, -15513.65, -18515.47, -20573.24, -23130.37, -21444.87, 0.000, 0.000, 0.000, 10:44:05.343, 1583739845343
226, -24695.46, -30269.78, -19194.02, -15433.50, -18017.38, -20542.33, -22939.53, -21216.70, 0.000, 0.000, 0.000, 10:44:05.343, 1583739845343
227, -25009.75, -30334.04, -19244.54, -15454.24, -18262.09, -20556.32, -23120.89, -21334.47, 0.000, 0.000, 0.000, 10:44:05.343, 1583739845343
228, -25449.74, -30371.59, -19335.67, -15560.39, -18802.98, -20600.93, -23314.81, -21563.15, 0.000, 0.000, 0.000, 10:44:05.343, 1583739845343
229, -25581.71, -30369.61, -19376.71, -15599.89, -18991.52, -20611.30, -23361.26, -21654.95, 0.000, 0.000, 0.000, 10:44:05.343, 1583739845343
230, -25129.71, -30314.75, -19293.82, -15521.43, -18522.02, -20576.79, -23135.73, -21446.50, 0.000, 0.000, 0.000, 10:44:05.344, 1583739845344
231, -24690.99, -30278.37, -19202.18, -15441.57, -18031.15, -20547.60, -22950.57, -21221.80, 0.000, 0.000, 0.000, 10:44:05.344, 1583739845344
232, -25011.96, -30332.70, -19255.94, -15458.82, -18274.52, -20561.53, -23131.73, -21341.87, 0.000, 0.000, 0.000, 10:44:05.344, 1583739845344
233, -25449.00, -30364.51, -19347.47, -15563.72, -18811.16, -20605.33, -23321.74, -21570.68, 0.000, 0.000, 0.000, 10:44:05.344, 1583739845344
234, -25581.23, -30367.75, -19378.60, -15601.27, -18992.46, -20613.31, -23360.86, -21661.30, 0.004, -0.016, 0.968, 10:44:05.344, 1583739845344
235, -25133.78, -30309.05, -19289.04, -15518.75, -18517.06, -20575.43, -23130.79, -21449.38, 0.000, 0.000, 0.000, 10:44:05.344, 1583739845344
236, -24689.45, -30266.52, -19193.13, -15434.13, -18020.00, -20540.98, -22941.25, -21217.88, 0.000, 0.000, 0.000, 10:44:05.344, 1583739845344
237, -25008.12, -30329.17, -19234.77, -15447.27, -18254.00, -20548.49, -23114.47, -21331.41, 0.000, 0.000, 0.000, 10:44:05.344, 1583739845344
238, -25451.51, -30361.96, -19325.99, -15550.53, -18791.24, -20590.81, -23307.86, -21558.75, 0.000, 0.000, 0.000, 10:44:05.344, 1583739845344
239, -25584.45, -30354.76, -19367.61, -15585.29, -18981.14, -20598.70, -23354.67, -21648.60, 0.000, 0.000, 0.000, 10:44:05.345, 1583739845345
240, -25136.08, -30308.16, -19281.08, -15504.82, -18509.72, -20563.29, -23128.58, -21439.05, 0.000, 0.000, 0.000, 10:44:05.345, 1583739845345
241, -24695.10, -30281.67, -19177.51, -15423.04, -18007.06, -20530.23, -22934.45, -21207.92, 0.000, 0.000, 0.000, 10:44:05.345, 1583739845345
242, -25012.61, -30341.51, -19227.95, -15440.92, -18247.90, -20543.09, -23111.64, -21323.25, 0.000, 0.000, 0.000, 10:44:05.345, 1583739845345
243, -25453.52, -30369.78, -19325.72, -15546.06, -18790.66, -20588.66, -23308.02, -21553.12, 0.000, 0.000, 0.000, 10:44:05.345, 1583739845345
244, -25581.93, -30370.21, -19363.47, -15583.34, -18975.78, -20596.60, -23349.84, -21641.49, 0.000, -0.018, 0.970, 10:44:05.345, 1583739845345
245, -25133.62, -30314.46, -19282.60, -15512.00, -18511.92, -20565.53, -23126.99, -21435.75, 0.000, 0.000, 0.000, 10:44:05.345, 1583739845345
246, -24684.28, -30266.21, -19188.21, -15427.82, -18012.42, -20531.15, -22935.21, -21204.03, 0.000, 0.000, 0.000, 10:44:05.345, 1583739845345
247, -25002.04, -30324.39, -19240.11, -15446.98, -18252.99, -20545.77, -23116.84, -21323.18, 0.000, 0.000, 0.000, 10:44:05.346, 1583739845346
248, -25448.38, -30365.18, -19337.05, -15559.63, -18796.45, -20595.99, -23313.58, -21555.60, 0.000, 0.000, 0.000, 10:44:05.346, 1583739845346
249, -25579.47, -30371.04, -19377.33, -15598.88, -18987.67, -20608.31, -23360.68, -21648.92, 0.000, 0.000, 0.000, 10:44:05.346, 1583739845346
250, -25133.57, -30314.71, -19291.70, -15518.91, -18521.33, -20573.71, -23135.44, -21443.17, 0.000, 0.000, 0.000, 10:44:05.346, 1583739845346
251, -24694.25, -30264.30, -19191.92, -15429.68, -18017.21, -20537.03, -22940.96, -21209.88, 0.000, 0.000, 0.000, 10:44:05.346, 1583739845346
252, -25005.79, -30321.71, -19230.50, -15436.32, -18244.30, -20542.91, -23111.21, -21322.13, 0.000, 0.000, 0.000, 10:44:05.346, 1583739845346
253, -25444.46, -30365.43, -19326.37, -15549.01, -18789.57, -20593.06, -23305.92, -21557.70, 0.000, 0.000, 0.000, 10:44:05.347, 1583739845347
254, -25572.25, -30363.32, -19362.58, -15584.11, -18979.65, -20599.30, -23347.31, -21645.36, -0.002, -0.020, 0.966, 10:44:05.347, 1583739845347
255, -25126.96, -30309.43, -19277.48, -15508.11, -18513.28, -20565.41, -23121.56, -21438.41, 0.000, 0.000, 0.000, 10:44:05.347, 1583739845347
0, -24681.13, -30268.78, -19183.14, -15436.14, -18014.50, -20539.93, -22932.58, -21213.32, 0.000, 0.000, 0.000, 10:44:05.347, 1583739845347
1, -24996.65, -30320.19, -19234.01, -15447.96, -18250.82, -20550.01, -23110.45, -21327.32, 0.000, 0.000, 0.000, 10:44:05.347, 1583739845347
2, -25440.82, -30359.84, -19329.59, -15549.55, -18792.99, -20592.86, -23307.82, -21555.53, 0.000, 0.000, 0.000, 10:44:05.348, 1583739845348
3, -25572.45, -30362.14, -19363.49, -15581.36, -18980.81, -20596.06, -23350.73, -21641.99, 0.000, 0.000, 0.000, 10:44:05.348, 1583739845348
4, -25128.52, -30307.47, -19275.83, -15501.47, -18512.72, -20556.99, -23123.77, -21430.99, 0.000, 0.000, 0.000, 10:44:05.348, 1583739845348
5, -24686.00, -30269.38, -19185.60, -15429.01, -18015.17, -20531.93, -22936.31, -21204.47, 0.000, 0.000, 0.000, 10:44:05.348, 1583739845348
6, -24993.07, -30310.24, -19232.18, -15443.98, -18250.22, -20542.66, -23111.35, -21317.55, 0.000, 0.000, 0.000, 10:44:05.349, 1583739845349
7, -25431.95, -30344.53, -19320.60, -15541.99, -18788.21, -20581.82, -23302.54, -21542.19, 0.000, 0.000, 0.000, 10:44:05.349, 1583739845349
8, -25570.22, -30351.01, -19358.76, -15576.30, -18979.22, -20589.20, -23346.80, -21632.11, -0.006, -0.018, 0.972, 10:44:05.349, 1583739845349
9, -25126.09, -30304.79, -19276.17, -15504.76, -18513.14, -20557.41, -23122.46, -21427.88, 0.000, 0.000, 0.000, 10:44:05.349, 1583739845349
10, -24685.18, -30267.10, -19186.69, -15431.42, -18015.53, -20532.18, -22935.39, -21203.38, 0.000, 0.000, 0.000, 10:44:05.350, 1583739845350
11, -25000.02, -30324.97, -19228.89, -15438.21, -18241.68, -20538.48, -23107.72, -21314.06, 0.000, 0.000, 0.000, 10:44:05.350, 1583739845350
12, -25441.67, -30352.04, -19315.57, -15536.90, -18779.13, -20576.88, -23295.86, -21538.56, 0.000, 0.000, 0.000, 10:44:05.350, 1583739845350
13, -25578.82, -30347.12, -19358.94, -15576.06, -18976.72, -20586.07, -23344.52, -21632.17, 0.000, 0.000, 0.000, 10:44:05.350, 1583739845350
14, -25136.01, -30297.86, -19281.08, -15504.09, -18520.19, -20555.69, -23127.33, -21431.12, 0.000, 0.000, 0.000, 10:44:05.350, 1583739845350
15, -24691.19, -30263.34, -19190.96, -15436.00, -18021.99, -20534.66, -22938.16, -21207.71, 0.000, 0.000, 0.000, 10:44:05.350, 1583739845350
16, -24998.44, -30321.17, -19235.17, -15448.79, -18250.31, -20546.75, -23111.19, -21320.90, 0.000, 0.000, 0.000, 10:44:05.350, 1583739845350
17, -25439.50, -30358.23, -19321.36, -15543.87, -18786.73, -20586.83, -23303.35, -21547.84, 0.000, 0.000, 0.000, 10:44:05.350, 1583739845350
18, -25576.74, -30352.53, -19360.14, -15581.24, -18982.15, -20596.13, -23349.91, -21640.53, -0.002, -0.016, 0.972, 10:44:05.351, 1583739845351
19, -25136.10, -30295.20, -19279.92, -15509.70, -18522.49, -20565.17, -23128.94, -21439.28, 0.000, 0.000, 0.000, 10:44:05.351, 1583739845351
20, -24681.31, -30258.65, -19189.51, -15433.30, -18019.78, -20537.79, -22935.44, -21209.05, 0.000, 0.000, 0.000, 10:44:05.351, 1583739845351
21, -24986.21, -30321.44, -19233.92, -15444.18, -18246.04, -20546.75, -23107.81, -21318.51, 0.000, 0.000, 0.000, 10:44:05.351, 1583739845351
22, -25432.73, -30356.75, -19322.08, -15544.41, -18783.94, -20587.50, -23299.53, -21546.28, 0.000, 0.000, 0.000, 10:44:05.351, 1583739845351
23, -25575.71, -30345.78, -19356.81, -15577.85, -18978.22, -20590.00, -23339.94, -21634.68, 0.000, 0.000, 0.000, 10:44:05.351, 1583739845351
24, -25135.23, -30296.16, -19278.98, -15508.51, -18519.27, -20558.26, -23117.31, -21431.77, 0.000, 0.000, 0.000, 10:44:05.351, 1583739845351
25, -24684.08, -30261.58, -19186.29, -15434.08, -18015.64, -20531.84, -22927.10, -21203.00, 0.000, 0.000, 0.000, 10:44:05.352, 1583739845352
26, -24993.74, -30317.88, -19225.00, -15440.61, -18239.34, -20539.04, -23097.42, -21310.55, 0.000, 0.000, 0.000, 10:44:05.352, 1583739845352
27, -25435.44, -30353.67, -19313.11, -15532.43, -18777.45, -20575.54, -23288.17, -21534.21, 0.000, 0.000, 0.000, 10:44:05.352, 1583739845352
28, -25574.80, -30355.21, -19352.70, -15560.03, -18976.79, -20578.56, -23336.25, -21623.05, 0.004, -0.016, 0.968, 10:44:05.352, 1583739845352
29, -25143.86, -30299.62, -19282.42, -15499.53, -18527.74, -20555.94, -23125.61, -21429.55, 0.000, 0.000, 0.000, 10:44:05.352, 1583739845352
30, -24693.00, -30256.24, -19194.16, -15430.35, -18026.61, -20533.47, -22937.47, -21203.22, 0.000, 0.000, 0.000, 10:44:05.352, 1583739845352
31, -24994.64, -30318.29, -19235.42, -15439.06, -18248.25, -20542.24, -23109.63, -21311.43, 0.000, 0.000, 0.000, 10:44:05.352, 1583739845352
32, -25438.32, -30362.03, -19322.97, -15538.19, -18784.45, -20584.77, -23302.50, -21541.18, 0.000, 0.000, 0.000, 10:44:05.352, 1583739845352
33, -25580.99, -30363.75, -19363.45, -15579.79, -18983.54, -20596.55, -23349.10, -21638.25, 0.000, 0.000, 0.000, 10:44:05.353, 1583739845353
34, -25147.32, -30312.34, -19289.87, -15515.98, -18531.52, -20571.43, -23133.27, -21442.74, 0.000, 0.000, 0.000, 10:44:05.353, 1583739845353
35, -24691.39, -30268.82, -19196.82, -15438.33, -18027.51, -20541.83, -22939.95, -21211.27, 0.000, 0.000, 0.000, 10:44:05.353, 1583739845353
36, -24987.17, -30320.21, -19236.71, -15446.13, -18247.99, -20549.43, -23109.80, -21317.71, 0.000, 0.000, 0.000, 10:44:05.353, 1583739845353
37, -25428.82, -30345.31, -19325.94, -15546.93, -18786.75, -20590.22, -23300.49, -21543.10, 0.000, 0.000, 0.000, 10:44:05.353, 1583739845353
38, -25572.52, -30352.21, -19370.56, -15587.14, -18991.88, -20600.73, -23350.17, -21640.29, 0.000, 0.000, 0.000, 10:44:05.353, 1583739845353
39, -25134.89, -30305.12, -19287.03, -15506.21, -18530.09, -20562.91, -23126.59, -21435.14, 0.000, -0.014, 0.962, 10:44:05.353, 1583739845353
40, -24681.29, -30262.63, -19193.96, -15429.05, -18024.85, -20537.21, -22933.74, -21205.08, 0.000, 0.000, 0.000, 10:44:05.353, 1583739845353
41, -24983.35, -30313.90, -19243.64, -15453.33, -18253.93, -20556.38, -23111.44, -21321.22, 0.000, 0.000, 0.000, 10:44:05.353, 1583739845353
42, -25434.99, -30356.37, -19336.70, -15562.89, -18797.46, -20604.80, -23307.15, -21554.05, 0.000, 0.000, 0.000, 10:44:05.354, 1583739845354
43, -25579.38, -30358.94, -19375.36, -15602.68, -18996.97, -20614.92, -23354.38, -21649.83, 0.000, 0.000, 0.000, 10:44:05.354, 1583739845354
44, -25143.54, -30313.64, -19294.58, -15522.48, -18542.87, -20580.21, -23136.38, -21448.42, 0.000, 0.000, 0.000, 10:44:05.354, 1583739845354
45, -24682.63, -30274.86, -19193.29, -15430.50, -18030.57, -20541.83, -22936.76, -21209.10, 0.000, 0.000, 0.000, 10:44:05.354, 1583739845354
46, -24985.85, -30327.07, -19240.22, -15449.17, -18251.38, -20554.53, -23109.18, -21319.27, 0.000, 0.000, 0.000, 10:44:05.354, 1583739845354
47, -25431.57, -30362.70, -19329.03, -15545.79, -18788.67, -20592.57, -23303.71, -21545.20, 0.000, 0.000, 0.000, 10:44:05.354, 1583739845354
48, -25571.87, -30363.46, -19367.61, -15579.25, -18990.58, -20597.87, -23352.39, -21637.20, 0.000, 0.000, 0.000, 10:44:05.355, 1583739845355
49, -25139.65, -30300.02, -19288.97, -15507.21, -18535.38, -20565.82, -23131.78, -21434.94, -0.002, -0.018, 0.968, 10:44:05.355, 1583739845355
50, -24680.55, -30256.42, -19194.00, -15432.96, -18025.21, -20537.01, -22936.09, -21202.22, 0.000, 0.000, 0.000, 10:44:05.355, 1583739845355
51, -24980.51, -30314.26, -19236.11, -15445.01, -18243.63, -20547.44, -23107.21, -21309.66, 0.000, 0.000, 0.000, 10:44:05.355, 1583739845355
52, -25428.06, -30356.82, -19322.61, -15540.88, -18781.37, -20586.00, -23296.71, -21535.32, 0.000, 0.000, 0.000, 10:44:05.355, 1583739845355
53, -25572.12, -30361.45, -19364.70, -15583.88, -18983.76, -20597.89, -23345.28, -21634.52, 0.000, 0.000, 0.000, 10:44:05.355, 1583739845355
54, -25137.96, -30308.70, -19281.11, -15506.61, -18526.55, -20561.39, -23123.46, -21430.56, 0.000, 0.000, 0.000, 10:44:05.355, 1583739845355
55, -24688.87, -30259.52, -19185.51, -15424.47, -18018.99, -20531.06, -22924.89, -21197.46, 0.000, 0.000, 0.000, 10:44:05.356, 1583739845356
56, -24995.37, -30326.53, -19237.34, -15446.87, -18244.77, -20549.90, -23100.84, -21313.57, 0.000, 0.000, 0.000, 10:44:05.356, 1583739845356
57, -25440.44, -30367.44, -19329.70, -15550.62, -18787.33, -20593.51, -23296.37, -21544.42, 0.000, 0.000, 0.000, 10:44:05.356, 1583739845356
58, -25585.50, -30367.39, -19369.89, -15585.33, -18987.90, -20600.28, -23345.97, -21637.83, 0.000, 0.000, 0.000, 10:44:05.356, 1583739845356
59, -25156.48, -30319.09, -19291.77, -15510.01, -18536.14, -20567.29, -23129.36, -21439.28, 0.002, -0.016, 0.970, 10:44:05.356, 1583739845356
60, -24695.88, -30275.93, -19199.57, -15438.62, -18026.03, -20541.30, -22933.76, -21208.09, 0.000, 0.000, 0.000, 10:44:05.356, 1583739845356
61, -24997.77, -30337.28, -19250.08, -15459.16, -18248.57, -20558.96, -23110.05, -21320.41, 0.000, 0.000, 0.000, 10:44:05.357, 1583739845357
62, -25439.88, -30373.94, -19336.67, -15547.14, -18784.90, -20594.88, -23303.75, -21543.39, 0.000, 0.000, 0.000, 10:44:05.357, 1583739845357
63, -25589.97, -30376.36, -19369.93, -15580.98, -18987.76, -20601.24, -23351.94, -21637.99, 0.000, 0.000, 0.000, 10:44:05.357, 1583739845357
64, -25161.51, -30323.69, -19286.74, -15507.62, -18540.23, -20568.21, -23135.98, -21438.76, 0.000, 0.000, 0.000, 10:44:05.357, 1583739845357
65, -24706.92, -30292.00, -19195.48, -15437.57, -18034.53, -20545.10, -22943.53, -21209.48, 0.000, 0.000, 0.000, 10:44:05.358, 1583739845358
66, -25013.79, -30353.89, -19243.87, -15455.40, -18252.97, -20560.68, -23116.11, -21319.79, 0.000, 0.000, 0.000, 10:44:05.358, 1583739845358
67, -25464.49, -30394.91, -19333.50, -15557.06, -18793.05, -20603.44, -23310.14, -21549.07, 0.000, 0.000, 0.000, 10:44:05.358, 1583739845358
68, -25617.42, -30399.20, -19372.75, -15596.42, -19000.90, -20611.26, -23358.64, -21645.54, 0.000, 0.000, 0.000, 10:44:05.359, 1583739845359
69, -25187.17, -30349.04, -19289.35, -15513.99, -18548.13, -20572.08, -23139.44, -21441.38, 0.002, -0.018, 0.972, 10:44:05.359, 1583739845359
70, -24737.52, -30329.46, -19191.54, -15432.22, -18033.97, -20541.21, -22939.06, -21202.80, 0.000, 0.000, 0.000, 10:44:05.359, 1583739845359
71, -25040.19, -30392.25, -19234.70, -15448.14, -18246.85, -20553.54, -23106.76, -21309.35, 0.000, 0.000, 0.000, 10:44:05.359, 1583739845359
72, -25495.96, -30440.10, -19326.48, -15551.00, -18787.89, -20597.56, -23303.44, -21541.27, 0.000, 0.000, 0.000, 10:44:05.359, 1583739845359
73, -25658.95, -30463.64, -19370.38, -15585.65, -18998.33, -20606.41, -23356.16, -21640.15, 0.000, 0.000, 0.000, 10:44:05.359, 1583739845359
74, -25244.48, -30425.17, -19290.14, -15507.55, -18548.01, -20570.55, -23138.48, -21440.87, 0.000, 0.000, 0.000, 10:44:05.360, 1583739845360
75, -24804.38, -30403.63, -19192.08, -15431.82, -18035.58, -20543.29, -22940.29, -21209.05, 0.000, 0.000, 0.000, 10:44:05.817, 1583739845817
76, -25109.95, -30472.76, -19233.36, -15446.13, -18247.88, -20553.26, -23108.06, -21313.08, 0.000, 0.000, 0.000, 10:44:05.818, 1583739845818
77, -25567.96, -30528.10, -19327.53, -15551.61, -18788.90, -20598.23, -23306.10, -21544.42, 0.000, 0.000, 0.000, 10:44:05.818, 1583739845818
