%OpenBCI Raw EEG Data
%Number of channels = 8
%Sample Rate = 250.0 Hz
%First Column = SampleIndex
%Last Column = Timestamp 
%Other Columns = EEG data in microvolts followed by Accel Data (in G) interleaved with Aux Data
0, 0.00, 0.00, 0.00, 0.00, 0.00, 0.00, 0.00, 0.00, 0.000, 0.000, 0.000, 10:42:49.273, 1583739769273
1, -25215.36, -30518.20, -19513.43, -15588.22, -18653.13, -20598.07, -23212.93, -21546.21, 0.004, -0.018, 0.970, 10:42:49.752, 1583739769752
2, -25731.64, -30551.28, -19622.17, -15692.78, -19259.42, -20643.40, -23446.98, -21819.68, 0.000, 0.000, 0.000, 10:42:49.753, 1583739769753
3, -25827.46, -30557.65, -19657.64, -15717.90, -19392.24, -20651.40, -23470.16, -21892.53, 0.000, 0.000, 0.000, 10:42:49.753, 1583739769753
4, -25263.04, -30498.98, -19548.84, -15640.07, -18816.37, -20616.40, -23185.15, -21627.57, 0.000, 0.000, 0.000, 10:42:49.753, 1583739769753
5, -24851.25, -30470.72, -19463.07, -15578.41, -18346.09, -20595.86, -23015.21, -21411.72, 0.000, 0.000, 0.000, 10:42:49.753, 1583739769753
6, -25224.08, -30521.66, -19523.02, -15603.73, -18668.22, -20611.08, -23221.81, -21560.71, 0.000, 0.000, 0.000, 10:42:49.753, 1583739769753
7, -25732.60, -30566.28, -19624.85, -15693.63, -19267.25, -20649.03, -23455.18, -21825.27, 0.000, 0.000, 0.000, 10:42:49.754, 1583739769754
8, -25820.98, -30573.03, -19653.04, -15706.70, -19392.62, -20645.77, -23473.76, -21887.36, 0.006, -0.018, 0.970, 10:42:49.754, 1583739769754
9, -25273.23, -30512.75, -19551.94, -15631.51, -18822.11, -20612.98, -23193.60, -21624.80, 0.000, 0.000, 0.000, 10:42:49.754, 1583739769754
10, -24853.82, -30474.26, -19459.21, -15568.19, -18343.92, -20588.37, -23016.53, -21403.63, 0.000, 0.000, 0.000, 10:42:49.754, 1583739769754
11, -25220.01, -30529.71, -19517.30, -15599.68, -18660.76, -20604.98, -23222.41, -21554.05, 0.000, 0.000, 0.000, 10:42:49.754, 1583739769754
12, -25727.06, -30576.38, -19624.72, -15695.08, -19262.13, -20645.37, -23456.19, -21822.70, 0.000, 0.000, 0.000, 10:42:49.759, 1583739769759
13, -25825.58, -30566.93, -19654.80, -15714.04, -19395.52, -20647.58, -23477.18, -21891.66, 0.000, 0.000, 0.000, 10:42:49.759, 1583739769759
14, -25267.93, -30489.34, -19550.04, -15635.65, -18823.65, -20613.47, -23195.41, -21627.30, 0.000, 0.000, 0.000, 10:42:49.759, 1583739769759
15, -24844.48, -30458.12, -19458.45, -15567.41, -18344.84, -20586.96, -23016.51, -21402.38, 0.000, 0.000, 0.000, 10:42:49.759, 1583739769759
16, -25214.73, -30519.34, -19515.22, -15596.71, -18656.13, -20604.33, -23219.24, -21550.63, 0.000, 0.000, 0.000, 10:42:49.760, 1583739769760
17, -25728.20, -30565.92, -19621.61, -15694.63, -19257.39, -20648.00, -23449.64, -21819.71, 0.000, 0.000, 0.000, 10:42:49.760, 1583739769760
18, -25825.27, -30565.70, -19652.81, -15710.75, -19389.67, -20649.17, -23471.03, -21888.12, 0.004, -0.020, 0.976, 10:42:49.760, 1583739769760
19, -25266.08, -30505.79, -19546.35, -15629.32, -18818.69, -20613.13, -23191.34, -21623.93, 0.000, 0.000, 0.000, 10:42:49.760, 1583739769760
20, -24844.50, -30466.25, -19453.75, -15561.87, -18335.18, -20586.54, -23009.94, -21397.75, 0.000, 0.000, 0.000, 10:42:49.760, 1583739769760
21, -25214.35, -30523.70, -19517.47, -15594.21, -18648.13, -20606.79, -23214.23, -21548.06, 0.000, 0.000, 0.000, 10:42:49.760, 1583739769760
22, -25727.13, -30569.27, -19628.65, -15698.12, -19257.03, -20653.39, -23452.37, -21822.54, 0.000, 0.000, 0.000, 10:42:49.760, 1583739769760
23, -25824.02, -30576.00, -19661.18, -15720.54, -19395.44, -20656.72, -23476.44, -21893.51, 0.000, 0.000, 0.000, 10:42:49.760, 1583739769760
24, -25273.88, -30505.15, -19554.22, -15639.56, -18827.23, -20623.35, -23199.30, -21633.20, 0.000, 0.000, 0.000, 10:42:49.761, 1583739769761
25, -24846.60, -30462.03, -19455.14, -15565.46, -18335.65, -20594.56, -23012.84, -21403.11, 0.000, 0.000, 0.000, 10:42:49.761, 1583739769761
26, -25211.11, -30523.29, -19517.68, -15601.50, -18648.08, -20615.73, -23215.15, -21552.69, 0.000, 0.000, 0.000, 10:42:49.761, 1583739769761
27, -25722.14, -30565.92, -19625.48, -15703.87, -19256.07, -20657.53, -23449.06, -21823.91, 0.000, 0.000, 0.000, 10:42:49.761, 1583739769761
28, -25826.34, -30567.48, -19657.42, -15719.69, -19397.89, -20657.91, -23473.06, -21895.23, 0.006, -0.024, 0.970, 10:42:49.761, 1583739769761
29, -25281.79, -30505.86, -19555.09, -15640.90, -18832.73, -20624.65, -23195.21, -21637.16, 0.000, 0.000, 0.000, 10:42:49.761, 1583739769761
30, -24853.37, -30470.99, -19461.69, -15576.95, -18343.67, -20599.52, -23012.01, -21410.20, 0.000, 0.000, 0.000, 10:42:49.761, 1583739769761
31, -25209.06, -30530.96, -19512.29, -15600.94, -18640.50, -20611.17, -23206.27, -21548.09, 0.000, 0.000, 0.000, 10:42:49.761, 1583739769761
32, -25728.20, -30571.87, -19620.67, -15703.35, -19248.52, -20656.21, -23445.35, -21820.44, 0.000, 0.000, 0.000, 10:42:49.762, 1583739769762
33, -25835.98, -30569.18, -19657.17, -15722.62, -19396.29, -20659.40, -23474.11, -21896.53, 0.000, 0.000, 0.000, 10:42:49.762, 1583739769762
34, -25283.58, -30497.14, -19550.60, -15628.43, -18828.57, -20614.16, -23193.67, -21629.94, 0.000, 0.000, 0.000, 10:42:49.762, 1583739769762
35, -24842.13, -30469.92, -19455.49, -15557.33, -18336.83, -20586.20, -23008.04, -21397.53, 0.000, 0.000, 0.000, 10:42:49.762, 1583739769762
36, -25196.90, -30524.61, -19514.79, -15592.89, -18639.52, -20606.32, -23208.06, -21543.26, 0.000, 0.000, 0.000, 10:42:49.762, 1583739769762
37, -25729.07, -30583.91, -19633.01, -15703.89, -19253.35, -20657.68, -23452.95, -21824.11, 0.000, 0.000, 0.000, 10:42:49.762, 1583739769762
38, -25840.58, -30588.05, -19662.25, -15717.59, -19398.99, -20654.98, -23480.48, -21896.97, 0.004, -0.020, 0.972, 10:42:49.763, 1583739769763
39, -25292.03, -30509.39, -19546.64, -15625.70, -18828.95, -20609.04, -23194.45, -21629.25, 0.000, 0.000, 0.000, 10:42:49.763, 1583739769763
40, -24854.76, -30470.84, -19457.04, -15567.36, -18339.23, -20588.30, -23011.21, -21403.36, 0.000, 0.000, 0.000, 10:42:49.763, 1583739769763
41, -25212.52, -30531.61, -19524.09, -15605.00, -18644.28, -20612.35, -23216.13, -21551.60, 0.000, 0.000, 0.000, 10:42:49.763, 1583739769763
42, -25729.92, -30578.46, -19627.42, -15693.96, -19247.42, -20650.24, -23452.05, -21820.13, 0.000, 0.000, 0.000, 10:42:49.763, 1583739769763
43, -25842.59, -30580.14, -19656.50, -15711.04, -19396.35, -20651.02, -23479.90, -21894.99, 0.000, 0.000, 0.000, 10:42:49.763, 1583739769763
44, -25296.47, -30507.36, -19556.28, -15639.56, -18838.77, -20622.70, -23204.26, -21640.60, 0.000, 0.000, 0.000, 10:42:49.764, 1583739769764
45, -24858.49, -30476.85, -19460.81, -15568.64, -18342.29, -20596.06, -23016.75, -21408.99, 0.000, 0.000, 0.000, 10:42:49.764, 1583739769764
46, -25213.82, -30535.54, -19518.62, -15592.84, -18637.80, -20609.85, -23212.76, -21547.57, 0.000, 0.000, 0.000, 10:42:49.764, 1583739769764
47, -25727.55, -30582.51, -19627.69, -15694.28, -19246.21, -20653.50, -23448.54, -21818.36, 0.000, 0.000, 0.000, 10:42:49.764, 1583739769764
48, -25835.15, -30570.84, -19660.39, -15715.94, -19398.68, -20654.58, -23476.46, -21895.01, -0.002, -0.020, 0.972, 10:42:49.764, 1583739769764
49, -25296.83, -30499.87, -19553.73, -15635.83, -18837.09, -20617.43, -23198.56, -21636.85, 0.000, 0.000, 0.000, 10:42:49.764, 1583739769764
50, -24856.46, -30469.99, -19457.42, -15565.91, -18337.30, -20588.95, -23009.00, -21401.39, 0.000, 0.000, 0.000, 10:42:49.765, 1583739769765
51, -25210.49, -30525.31, -19517.70, -15599.80, -18632.50, -20607.91, -23208.66, -21543.55, 0.000, 0.000, 0.000, 10:42:49.765, 1583739769765
52, -25727.46, -30580.45, -19618.66, -15697.65, -19236.78, -20647.56, -23442.40, -21813.69, 0.000, 0.000, 0.000, 10:42:49.765, 1583739769765
53, -25845.59, -30589.66, -19655.10, -15722.64, -19395.23, -20652.81, -23474.18, -21894.16, 0.000, 0.000, 0.000, 10:42:49.765, 1583739769765
54, -25303.63, -30523.45, -19557.42, -15646.38, -18843.62, -20621.70, -23201.06, -21640.44, 0.000, 0.000, 0.000, 10:42:49.765, 1583739769765
55, -24854.63, -30478.17, -19462.94, -15574.23, -18345.73, -20593.58, -23011.05, -21404.63, 0.000, 0.000, 0.000, 10:42:49.765, 1583739769765
56, -25205.84, -30526.92, -19518.64, -15599.53, -18635.25, -20607.57, -23207.73, -21542.28, 0.000, 0.000, 0.000, 10:42:49.766, 1583739769766
57, -25726.79, -30574.59, -19626.60, -15697.23, -19243.51, -20649.12, -23446.09, -21813.54, 0.000, 0.000, 0.000, 10:42:49.766, 1583739769766
58, -25843.06, -30579.17, -19661.13, -15717.12, -19400.55, -20650.44, -23477.00, -21892.48, 0.000, -0.022, 0.970, 10:42:49.766, 1583739769766
59, -25303.34, -30511.63, -19562.74, -15639.65, -18849.05, -20616.35, -23204.73, -21637.96, 0.000, 0.000, 0.000, 10:42:49.766, 1583739769766
60, -24846.29, -30461.43, -19456.63, -15557.06, -18337.53, -20580.23, -23004.57, -21394.57, 0.000, 0.000, 0.000, 10:42:49.766, 1583739769766
61, -25200.18, -30516.14, -19508.80, -15579.77, -18619.70, -20594.72, -23198.23, -21529.49, 0.000, 0.000, 0.000, 10:42:49.766, 1583739769766
62, -25727.93, -30577.79, -19618.71, -15686.25, -19232.51, -20643.49, -23441.23, -21807.63, 0.000, 0.000, 0.000, 10:42:49.767, 1583739769767
63, -25846.48, -30571.20, -19651.23, -15708.00, -19395.08, -20645.21, -23475.01, -21888.55, 0.000, 0.000, 0.000, 10:42:49.767, 1583739769767
64, -25312.61, -30516.43, -19552.75, -15628.36, -18845.18, -20610.32, -23204.62, -21637.07, 0.000, 0.000, 0.000, 10:42:49.767, 1583739769767
65, -24867.46, -30490.62, -19455.14, -15556.66, -18339.96, -20582.83, -23010.83, -21401.93, 0.000, 0.000, 0.000, 10:42:49.767, 1583739769767
66, -25213.35, -30545.94, -19512.71, -15590.25, -18624.79, -20602.25, -23206.79, -21540.35, 0.000, 0.000, 0.000, 10:42:49.767, 1583739769767
67, -25733.38, -30591.15, -19623.89, -15693.96, -19235.58, -20648.12, -23448.48, -21814.68, 0.000, 0.000, 0.000, 10:42:49.767, 1583739769767
68, -25851.02, -30582.53, -19661.51, -15719.96, -19402.23, -20653.73, -23485.47, -21898.76, 0.000, 0.000, 0.000, 10:42:49.767, 1583739769767
69, -25312.61, -30517.15, -19564.75, -15643.52, -18856.60, -20621.76, -23215.88, -21647.26, 0.002, -0.022, 0.966, 10:42:49.768, 1583739769768
70, -24858.74, -30479.26, -19471.48, -15573.40, -18352.39, -20598.92, -23024.69, -21412.61, 0.000, 0.000, 0.000, 10:42:49.768, 1583739769768
71, -25199.82, -30537.38, -19509.25, -15584.55, -18619.70, -20602.29, -23203.88, -21535.88, 0.000, 0.000, 0.000, 10:42:49.768, 1583739769768
72, -25728.58, -30585.23, -19619.53, -15692.65, -19230.63, -20650.20, -23444.59, -21810.41, 0.000, 0.000, 0.000, 10:42:49.768, 1583739769768
73, -25853.90, -30582.48, -19662.83, -15723.22, -19402.28, -20658.69, -23483.84, -21898.38, 0.000, 0.000, 0.000, 10:42:49.768, 1583739769768
74, -25326.34, -30529.06, -19562.29, -15640.57, -18854.52, -20622.48, -23212.76, -21647.22, 0.000, 0.000, 0.000, 10:42:49.769, 1583739769769
75, -24875.12, -30488.65, -19461.93, -15564.82, -18345.44, -20591.74, -23015.46, -21406.31, 0.000, 0.000, 0.000, 10:42:49.769, 1583739769769
76, -25210.17, -30542.92, -19516.22, -15595.06, -18622.11, -20608.06, -23206.12, -21537.45, 0.000, 0.000, 0.000, 10:42:49.769, 1583739769769
77, -25726.90, -30589.63, -19629.97, -15708.00, -19237.14, -20658.91, -23449.95, -21813.49, 0.000, 0.000, 0.000, 10:42:49.769, 1583739769769
78, -25854.84, -30584.49, -19665.29, -15726.71, -19407.15, -20660.83, -23487.23, -21897.18, 0.000, 0.000, 0.000, 10:42:49.769, 1583739769769
79, -25325.33, -30518.60, -19561.40, -15636.99, -18858.10, -20620.38, -23214.57, -21642.23, 0.002, -0.018, 0.968, 10:42:49.769, 1583739769769
80, -24868.73, -30486.46, -19465.26, -15567.68, -18346.91, -20594.76, -23017.09, -21403.38, 0.000, 0.000, 0.000, 10:42:49.770, 1583739769770
81, -25204.61, -30546.21, -19519.51, -15598.41, -18622.29, -20612.04, -23207.48, -21536.96, 0.000, 0.000, 0.000, 10:42:49.770, 1583739769770
82, -25736.02, -30591.65, -19629.66, -15705.25, -19235.29, -20659.69, -23450.82, -21814.10, 0.000, 0.000, 0.000, 10:42:49.770, 1583739769770
83, -25859.18, -30579.94, -19665.20, -15727.78, -19407.13, -20660.48, -23487.66, -21897.38, 0.000, 0.000, 0.000, 10:42:49.770, 1583739769770
84, -25332.28, -30524.32, -19561.15, -15639.94, -18858.81, -20619.26, -23215.30, -21644.40, 0.000, 0.000, 0.000, 10:42:49.770, 1583739769770
85, -24878.77, -30485.83, -19466.18, -15569.75, -18343.41, -20595.43, -23018.59, -21406.64, 0.000, 0.000, 0.000, 10:42:49.770, 1583739769770
86, -25211.52, -30543.75, -19521.39, -15597.47, -18612.39, -20612.15, -23206.99, -21537.87, 0.000, 0.000, 0.000, 10:42:49.771, 1583739769771
87, -25727.15, -30592.25, -19620.38, -15688.35, -19215.75, -20647.40, -23441.97, -21803.21, 0.000, 0.000, 0.000, 10:42:49.771, 1583739769771
88, -25860.88, -30589.86, -19655.77, -15709.66, -19395.88, -20649.21, -23481.45, -21889.91, 0.000, 0.000, 0.000, 10:42:49.771, 1583739769771
89, -25336.80, -30528.84, -19560.44, -15638.44, -18861.21, -20619.06, -23216.33, -21644.67, 0.002, -0.018, 0.968, 10:42:49.771, 1583739769771
90, -24877.65, -30499.83, -19469.64, -15568.44, -18347.99, -20594.47, -23020.11, -21405.53, 0.000, 0.000, 0.000, 10:42:49.771, 1583739769771
91, -25203.98, -30549.85, -19520.13, -15587.86, -18608.97, -20605.74, -23205.29, -21531.12, 0.000, 0.000, 0.000, 10:42:49.771, 1583739769771
92, -25730.12, -30589.52, -19625.37, -15693.76, -19219.15, -20652.38, -23445.26, -21805.06, 0.000, 0.000, 0.000, 10:42:49.771, 1583739769771
93, -25876.17, -30598.29, -19660.64, -15718.57, -19401.16, -20656.61, -23486.12, -21896.97, 0.000, 0.000, 0.000, 10:42:49.772, 1583739769772
94, -25352.73, -30546.14, -19558.42, -15637.26, -18860.76, -20619.10, -23216.67, -21648.94, 0.000, 0.000, 0.000, 10:42:49.772, 1583739769772
95, -24886.25, -30505.71, -19457.33, -15557.04, -18342.94, -20587.88, -23012.28, -21402.53, 0.000, 0.000, 0.000, 10:42:49.772, 1583739769772
96, -25213.01, -30552.29, -19507.71, -15577.47, -18606.06, -20599.63, -23195.79, -21525.31, 0.000, 0.000, 0.000, 10:42:49.772, 1583739769772
97, -25730.95, -30603.72, -19615.82, -15680.75, -19213.51, -20643.38, -23432.92, -21796.39, 0.000, 0.000, 0.000, 10:42:49.772, 1583739769772
98, -25876.61, -30614.11, -19660.64, -15715.56, -19401.11, -20653.93, -23478.32, -21892.06, 0.000, 0.000, 0.000, 10:42:49.772, 1583739769772
99, -25366.41, -30554.23, -19572.19, -15648.61, -18873.23, -20628.31, -23219.24, -21653.63, 0.000, -0.014, 0.970, 10:42:49.773, 1583739769773
100, -24902.75, -30512.10, -19479.03, -15582.65, -18355.05, -20605.04, -23019.52, -21413.66, 0.000, 0.000, 0.000, 10:42:49.773, 1583739769773
101, -25231.81, -30573.34, -19526.39, -15602.79, -18612.63, -20616.55, -23203.50, -21536.49, 0.000, 0.000, 0.000, 10:42:49.773, 1583739769773
102, -25754.66, -30627.92, -19631.71, -15699.91, -19219.21, -20657.35, -23441.97, -21805.22, 0.000, 0.000, 0.000, 10:42:49.773, 1583739769773
103, -25904.38, -30649.13, -19674.34, -15727.89, -19409.00, -20662.51, -23486.90, -21897.82, 0.000, 0.000, 0.000, 10:42:49.773, 1583739769773
104, -25392.63, -30588.32, -19569.20, -15639.43, -18871.62, -20619.91, -23219.30, -21649.59, 0.000, 0.000, 0.000, 10:42:49.773, 1583739769773
105, -24928.86, -30545.67, -19468.28, -15568.37, -18349.80, -20592.26, -23016.42, -21406.18, 0.000, 0.000, 0.000, 10:42:49.774, 1583739769774
106, -25257.56, -30608.16, -19518.26, -15592.55, -18608.97, -20609.11, -23201.87, -21531.21, 0.000, 0.000, 0.000, 10:42:49.774, 1583739769774
107, -25786.74, -30668.58, -19629.35, -15697.74, -19224.20, -20656.72, -23443.09, -21805.33, 0.000, 0.000, 0.000, 10:42:49.774, 1583739769774
108, -25933.10, -30677.16, -19673.33, -15730.51, -19417.45, -20664.25, -23489.47, -21901.13, 0.000, 0.000, 0.000, 10:42:49.774, 1583739769774
109, -25427.52, -30619.10, -19577.40, -15652.19, -18889.57, -20629.79, -23228.58, -21659.94, 0.004, -0.016, 0.970, 10:42:49.774, 1583739769774
110, -24959.23, -30590.98, -19475.16, -15578.29, -18359.97, -20603.26, -23021.56, -21414.83, 0.000, 0.000, 0.000, 10:42:49.774, 1583739769774
111, -25287.51, -30653.85, -19521.54, -15593.00, -18610.82, -20613.02, -23201.62, -21534.38, 0.000, 0.000, 0.000, 10:42:49.774, 1583739769774
112, -25829.88, -30717.64, -19625.81, -15690.90, -19218.21, -20655.60, -23440.43, -21806.85, 0.000, 0.000, 0.000, 10:42:49.775, 1583739769775
113, -25985.58, -30745.70, -19669.06, -15729.35, -19415.46, -20667.14, -23488.20, -21907.55, 0.000, 0.000, 0.000, 10:42:49.775, 1583739769775
114, -25484.81, -30689.55, -19571.28, -15653.51, -18886.22, -20630.35, -23222.52, -21664.83, 0.000, 0.000, 0.000, 10:42:49.775, 1583739769775
115, -25024.25, -30655.97, -19467.12, -15572.10, -18356.08, -20598.56, -23015.68, -21417.08, 0.000, 0.000, 0.000, 10:42:49.775, 1583739769775
116, -25354.79, -30731.28, -19521.23, -15593.16, -18611.09, -20615.10, -23201.20, -21541.81, 0.000, 0.000, 0.000, 10:42:49.776, 1583739769776
117, -25888.77, -30795.94, -19637.01, -15697.32, -19227.33, -20661.75, -23448.68, -21816.24, 0.000, 0.000, 0.000, 10:42:49.776, 1583739769776
118, -26040.38, -30804.21, -19679.39, -15728.90, -19426.95, -20670.04, -23498.92, -21914.37, 0.000, 0.000, 0.000, 10:42:49.777, 1583739769777
119, -25533.22, -30755.89, -19578.88, -15652.37, -18901.21, -20634.28, -23238.41, -21674.87, 0.004, -0.012, 0.968, 10:42:49.777, 1583739769777
120, -25070.07, -30715.41, -19481.65, -15581.47, -18374.23, -20608.55, -23036.45, -21429.64, 0.000, 0.000, 0.000, 10:42:49.778, 1583739769778
121, -25390.29, -30777.32, -19525.86, -15598.10, -18619.23, -20620.24, -23215.37, -21546.77, 0.000, 0.000, 0.000, 10:42:50.233, 1583739770233
122, -25915.60, -30844.33, -19637.10, -15702.46, -19228.91, -20666.82, -23458.98, -21819.68, 0.000, 0.000, 0.000, 10:42:50.233, 1583739770233
123, -26064.39, -30848.83, -19679.39, -15731.60, -19427.46, -20671.83, -23506.57, -21913.47, 0.000, 0.000, 0.000, 10:42:50.234, 1583739770234
124, -25565.68, -30783.29, -19592.91, -15662.36, -18911.61, -20644.63, -23251.51, -21679.16, 0.000, 0.000, 0.000, 10:42:50.234, 1583739770234
125, -25086.72, -30740.11, -19502.70, -15595.12, -18387.86, -20622.93, -23045.25, -21434.56, 0.000, 0.000, 0.000, 10:42:50.234, 1583739770234
126, -25401.10, -30795.16, -19541.93, -15607.40, -18629.49, -20630.12, -23219.86, -21547.91, 0.000, 0.000, 0.000, 10:42:50.234, 1583739770234
127, -25929.01, -30849.25, -19640.68, -15703.71, -19233.54, -20670.27, -23457.51, -21817.11, 0.000, 0.000, 0.000, 10:42:50.234, 1583739770234
128, -26082.14, -30864.76, -19692.74, -15743.96, -19442.22, -20683.92, -23512.94, -21923.51, 0.000, 0.000, 0.000, 10:42:50.234, 1583739770234
129, -25573.08, -30792.01, -19599.78, -15675.55, -18922.18, -20652.81, -23253.75, -21687.63, 0.008, -0.018, 0.972, 10:42:50.234, 1583739770234
130, -25092.16, -30745.14, -19500.67, -15603.33, -18388.69, -20625.68, -23043.13, -21437.18, 0.000, 0.000, 0.000, 10:42:50.234, 1583739770234
131, -25401.51, -30805.80, -19547.67, -15619.02, -18627.81, -20638.01, -23219.97, -21552.09, 0.000, 0.000, 0.000, 10:42:50.234, 1583739770234
132, -25928.38, -30856.80, -19650.96, -15714.48, -19234.19, -20679.95, -23461.20, -21823.28, 0.000, 0.000, 0.000, 10:42:50.235, 1583739770235
133, -26083.41, -30863.53, -19689.03, -15739.23, -19437.01, -20683.10, -23510.84, -21920.00, 0.000, 0.000, 0.000, 10:42:50.241, 1583739770241
134, -25580.05, -30806.45, -19589.61, -15660.06, -18914.85, -20645.61, -23249.81, -21680.68, 0.000, 0.000, 0.000, 10:42:50.241, 1583739770241
135, -25096.34, -30759.51, -19486.07, -15585.71, -18377.25, -20616.71, -23035.71, -21429.27, 0.000, 0.000, 0.000, 10:42:50.241, 1583739770241
136, -25399.90, -30803.90, -19530.86, -15602.66, -18611.16, -20626.41, -23207.62, -21542.68, 0.000, 0.000, 0.000, 10:42:50.241, 1583739770241
137, -25924.98, -30854.03, -19636.83, -15697.47, -19218.14, -20665.71, -23447.49, -21812.40, 0.000, 0.000, 0.000, 10:42:50.242, 1583739770242
138, -26080.06, -30860.74, -19682.86, -15735.67, -19427.89, -20676.08, -23500.20, -21915.79, 0.000, 0.000, 0.000, 10:42:50.242, 1583739770242
139, -25575.89, -30795.58, -19585.13, -15653.42, -18909.98, -20635.80, -23240.99, -21676.18, 0.008, -0.020, 0.974, 10:42:50.242, 1583739770242
140, -25088.04, -30746.30, -19476.06, -15570.98, -18366.67, -20601.74, -23025.63, -21420.84, 0.000, 0.000, 0.000, 10:42:50.242, 1583739770242
141, -25390.40, -30807.83, -19521.07, -15592.00, -18599.33, -20614.48, -23199.97, -21534.50, 0.000, 0.000, 0.000, 10:42:50.242, 1583739770242
142, -25914.92, -30864.83, -19634.26, -15698.66, -19212.49, -20662.53, -23448.30, -21809.27, 0.000, 0.000, 0.000, 10:42:50.242, 1583739770242
143, -26085.31, -30868.59, -19683.66, -15732.41, -19431.78, -20672.55, -23507.02, -21914.03, 0.000, 0.000, 0.000, 10:42:50.242, 1583739770242
144, -25593.73, -30808.55, -19594.90, -15659.97, -18925.00, -20642.69, -23255.42, -21684.37, 0.000, 0.000, 0.000, 10:42:50.243, 1583739770243
145, -25108.63, -30758.77, -19493.65, -15585.04, -18386.37, -20615.48, -23042.72, -21432.55, 0.000, 0.000, 0.000, 10:42:50.243, 1583739770243
146, -25404.61, -30805.89, -19541.75, -15603.28, -18618.13, -20627.91, -23216.51, -21544.00, 0.000, 0.000, 0.000, 10:42:50.243, 1583739770243
147, -25928.25, -30846.19, -19650.02, -15701.72, -19229.14, -20672.59, -23462.45, -21815.01, 0.000, 0.000, 0.000, 10:42:50.243, 1583739770243
148, -26091.82, -30856.49, -19686.57, -15731.94, -19439.47, -20675.79, -23512.22, -21914.81, 0.000, 0.000, 0.000, 10:42:50.243, 1583739770243
149, -25593.78, -30800.97, -19587.37, -15653.08, -18922.74, -20635.67, -23251.56, -21676.07, 0.002, -0.020, 0.978, 10:42:50.243, 1583739770243
150, -25097.30, -30745.09, -19491.23, -15582.58, -18384.24, -20612.04, -23038.59, -21424.35, 0.000, 0.000, 0.000, 10:42:50.244, 1583739770244
151, -25392.43, -30796.63, -19537.79, -15605.25, -18611.58, -20626.86, -23209.47, -21536.58, 0.000, 0.000, 0.000, 10:42:50.244, 1583739770244
152, -25907.26, -30847.11, -19641.46, -15707.00, -19215.12, -20669.80, -23449.93, -21805.33, 0.000, 0.000, 0.000, 10:42:50.244, 1583739770244
153, -26067.74, -30848.69, -19681.00, -15729.97, -19427.96, -20670.24, -23498.68, -21905.20, 0.000, 0.000, 0.000, 10:42:50.244, 1583739770244
154, -25580.07, -30779.71, -19580.78, -15645.26, -18912.06, -20626.57, -23235.96, -21664.65, 0.000, 0.000, 0.000, 10:42:50.244, 1583739770244
155, -25085.18, -30721.78, -19476.06, -15570.45, -18363.59, -20596.21, -23018.47, -21407.36, 0.000, 0.000, 0.000, 10:42:50.244, 1583739770244
156, -25375.89, -30776.47, -19520.67, -15586.70, -18588.20, -20605.94, -23189.08, -21515.47, 0.000, 0.000, 0.000, 10:42:50.244, 1583739770244
157, -25899.84, -30827.03, -19626.66, -15687.33, -19195.88, -20649.97, -23430.80, -21784.50, 0.000, 0.000, 0.000, 10:42:50.244, 1583739770244
158, -26069.33, -30832.76, -19674.14, -15726.40, -19417.23, -20663.23, -23491.15, -21893.87, 0.000, 0.000, 0.000, 10:42:50.244, 1583739770244
159, -25579.74, -30769.79, -19586.88, -15657.62, -18915.86, -20634.53, -23243.15, -21669.57, 0.000, 0.000, 0.000, 10:42:50.245, 1583739770245
160, -25086.35, -30713.55, -19483.48, -15579.86, -18371.75, -20603.75, -23026.39, -21416.46, 0.000, -0.018, 0.976, 10:42:50.245, 1583739770245
161, -25378.08, -30775.24, -19521.46, -15583.30, -18590.15, -20607.55, -23194.94, -21520.97, 0.000, 0.000, 0.000, 10:42:50.245, 1583739770245
162, -25893.49, -30829.67, -19627.29, -15680.46, -19197.35, -20649.75, -23435.11, -21789.53, 0.000, 0.000, 0.000, 10:42:50.245, 1583739770245
163, -26067.68, -30839.62, -19679.12, -15727.29, -19423.67, -20666.24, -23498.66, -21904.51, 0.000, 0.000, 0.000, 10:42:50.245, 1583739770245
164, -25586.00, -30771.18, -19585.13, -15655.09, -18919.83, -20632.29, -23250.87, -21679.60, 0.000, 0.000, 0.000, 10:42:50.245, 1583739770245
165, -25090.97, -30718.74, -19477.24, -15571.74, -18371.70, -20596.10, -23033.23, -21422.67, 0.000, 0.000, 0.000, 10:42:50.245, 1583739770245
166, -25378.93, -30773.75, -19514.82, -15577.71, -18587.38, -20601.65, -23200.02, -21525.15, 0.000, 0.000, 0.000, 10:42:50.245, 1583739770245
167, -25896.82, -30819.63, -19616.72, -15670.67, -19189.91, -20641.88, -23438.13, -21790.98, 0.000, 0.000, 0.000, 10:42:50.246, 1583739770246
168, -26061.93, -30823.12, -19664.08, -15711.64, -19416.15, -20653.64, -23497.54, -21901.96, 0.000, 0.000, 0.000, 10:42:50.246, 1583739770246
169, -25572.54, -30753.12, -19582.92, -15648.46, -18927.66, -20628.71, -23254.40, -21683.00, 0.000, 0.000, 0.000, 10:42:50.246, 1583739770246
170, -25072.04, -30693.64, -19487.30, -15579.37, -18390.43, -20605.58, -23041.61, -21431.12, -0.002, -0.022, 0.974, 10:42:50.246, 1583739770246
171, -25354.99, -30740.82, -19533.28, -15599.15, -18611.60, -20619.95, -23210.07, -21537.11, 0.000, 0.000, 0.000, 10:42:50.246, 1583739770246
172, -25863.76, -30780.01, -19637.57, -15694.28, -19211.46, -20659.54, -23444.54, -21797.29, 0.000, 0.000, 0.000, 10:42:50.246, 1583739770246
173, -26028.36, -30779.24, -19678.01, -15728.50, -19429.61, -20665.39, -23496.73, -21899.57, 0.000, 0.000, 0.000, 10:42:50.246, 1583739770246
174, -25543.66, -30714.02, -19585.40, -15652.46, -18929.18, -20628.45, -23243.87, -21669.88, 0.000, 0.000, 0.000, 10:42:50.247, 1583739770247
175, -25044.37, -30662.75, -19482.25, -15576.44, -18380.00, -20597.58, -23022.90, -21410.89, 0.000, 0.000, 0.000, 10:42:50.247, 1583739770247
176, -25325.55, -30711.94, -19519.80, -15585.36, -18585.86, -20603.77, -23184.95, -21510.27, 0.000, 0.000, 0.000, 10:42:50.247, 1583739770247
177, -25844.25, -30765.74, -19625.88, -15689.00, -19188.99, -20649.66, -23423.89, -21776.10, 0.000, 0.000, 0.000, 10:42:50.247, 1583739770247
178, -26006.34, -30764.98, -19668.51, -15724.09, -19412.27, -20654.91, -23478.18, -21879.65, 0.000, 0.000, 0.000, 10:42:50.247, 1583739770247
179, -25528.40, -30701.33, -19572.73, -15639.31, -18916.13, -20613.47, -23228.63, -21652.09, 0.000, 0.000, 0.000, 10:42:50.247, 1583739770247
180, -25026.00, -30646.72, -19459.92, -15552.19, -18358.43, -20577.11, -23004.21, -21392.96, 0.002, -0.022, 0.972, 10:42:50.247, 1583739770247
181, -25305.17, -30685.44, -19494.79, -15565.33, -18560.91, -20584.12, -23166.13, -21494.91, 0.000, 0.000, 0.000, 10:42:50.247, 1583739770247
182, -25823.80, -30734.38, -19605.29, -15675.50, -19163.98, -20633.54, -23407.28, -21765.66, 0.000, 0.000, 0.000, 10:42:50.247, 1583739770247
183, -25995.97, -30748.09, -19651.03, -15710.15, -19395.46, -20644.12, -23472.17, -21879.68, 0.000, 0.000, 0.000, 10:42:50.247, 1583739770247
184, -25516.82, -30682.66, -19553.10, -15626.13, -18901.42, -20600.75, -23224.60, -21652.29, 0.000, 0.000, 0.000, 10:42:50.247, 1583739770247
185, -25023.40, -30637.91, -19450.82, -15552.77, -18354.87, -20574.76, -23010.25, -21401.66, 0.000, 0.000, 0.000, 10:42:50.249, 1583739770249
186, -25304.12, -30688.36, -19495.17, -15569.31, -18565.45, -20585.93, -23178.40, -21504.99, 0.000, 0.000, 0.000, 10:42:50.249, 1583739770249
187, -25817.20, -30745.09, -19601.54, -15666.83, -19164.92, -20626.05, -23414.93, -21767.16, 0.000, 0.000, 0.000, 10:42:50.249, 1583739770249
188, -25987.63, -30743.88, -19646.24, -15696.69, -19395.26, -20628.92, -23474.72, -21873.06, 0.000, 0.000, 0.000, 10:42:50.249, 1583739770249
189, -25511.14, -30666.90, -19557.53, -15617.88, -18909.33, -20589.98, -23231.38, -21649.05, 0.000, 0.000, 0.000, 10:42:50.249, 1583739770249
190, -25004.81, -30613.98, -19461.44, -15547.47, -18366.88, -20565.30, -23017.27, -21396.54, 0.004, -0.022, 0.966, 10:42:50.249, 1583739770249
191, -25280.31, -30670.26, -19512.40, -15570.27, -18580.31, -20583.07, -23188.01, -21502.36, 0.000, 0.000, 0.000, 10:42:50.249, 1583739770249
192, -25782.54, -30711.45, -19622.46, -15678.83, -19181.24, -20632.38, -23421.54, -21766.24, 0.000, 0.000, 0.000, 10:42:50.249, 1583739770249
193, -25952.61, -30707.09, -19668.42, -15715.87, -19413.88, -20642.55, -23481.91, -21877.13, 0.000, 0.000, 0.000, 10:42:50.249, 1583739770249
194, -25484.68, -30636.73, -19576.98, -15640.45, -18931.50, -20609.47, -23244.07, -21663.73, 0.000, 0.000, 0.000, 10:42:50.249, 1583739770249
195, -24979.46, -30585.75, -19469.29, -15561.95, -18379.32, -20580.48, -23022.05, -21406.13, 0.000, 0.000, 0.000, 10:42:50.249, 1583739770249
196, -25256.44, -30637.76, -19511.64, -15572.68, -18580.80, -20589.51, -23185.15, -21503.38, 0.000, 0.000, 0.000, 10:42:50.249, 1583739770249
197, -25754.60, -30671.89, -19618.15, -15675.88, -19176.10, -20635.33, -23416.04, -21761.48, 0.000, 0.000, 0.000, 10:42:50.249, 1583739770249
198, -25921.92, -30656.94, -19669.62, -15720.56, -19415.44, -20649.23, -23477.87, -21874.13, 0.000, 0.000, 0.000, 10:42:50.249, 1583739770249
199, -25449.07, -30583.85, -19582.70, -15648.48, -18934.41, -20614.81, -23235.67, -21657.65, 0.000, 0.000, 0.000, 10:42:50.249, 1583739770249
200, -24943.67, -30548.89, -19469.71, -15564.88, -18373.67, -20580.75, -23006.20, -21396.34, 0.006, -0.018, 0.974, 10:42:50.249, 1583739770249
201, -25217.84, -30609.10, -19501.16, -15571.48, -18562.63, -20587.16, -23160.70, -21491.11, 0.000, 0.000, 0.000, 10:42:50.250, 1583739770250
202, -25722.32, -30640.35, -19599.64, -15674.74, -19150.62, -20634.82, -23388.82, -21750.97, 0.000, 0.000, 0.000, 10:42:50.250, 1583739770250
203, -25897.49, -30642.50, -19645.69, -15710.79, -19388.21, -20645.17, -23452.75, -21864.52, 0.000, 0.000, 0.000, 10:42:50.250, 1583739770250
204, -25438.97, -30584.03, -19558.71, -15635.45, -18914.13, -20610.25, -23216.55, -21652.00, 0.000, 0.000, 0.000, 10:42:50.250, 1583739770250
205, -24931.72, -30529.55, -19450.24, -15552.59, -18360.04, -20576.03, -22995.90, -21392.09, 0.000, 0.000, 0.000, 10:42:50.250, 1583739770250
206, -25202.93, -30578.41, -19491.28, -15563.54, -18556.06, -20584.10, -23162.75, -21490.40, 0.000, 0.000, 0.000, 10:42:50.250, 1583739770250
207, -25705.64, -30619.86, -19595.80, -15664.84, -19148.72, -20628.67, -23395.55, -21748.00, 0.000, 0.000, 0.000, 10:42:50.250, 1583739770250
208, -25886.25, -30637.98, -19651.34, -15713.75, -19396.78, -20645.81, -23467.59, -21868.41, 0.000, 0.000, 0.000, 10:42:50.250, 1583739770250
209, -25440.42, -30585.99, -19569.13, -15640.57, -18928.22, -20610.30, -23234.55, -21657.99, 0.000, 0.000, 0.000, 10:42:50.251, 1583739770251
210, -24945.04, -30538.29, -19461.48, -15558.31, -18370.07, -20578.98, -23013.22, -21401.77, 0.006, -0.018, 0.976, 10:42:50.251, 1583739770251
211, -25211.18, -30579.60, -19488.87, -15554.56, -18555.46, -20576.48, -23167.16, -21490.51, 0.000, 0.000, 0.000, 10:42:50.251, 1583739770251
212, -25705.76, -30620.21, -19587.48, -15647.70, -19142.75, -20615.95, -23396.55, -21744.87, 0.000, 0.000, 0.000, 10:42:50.251, 1583739770251
213, -25882.18, -30619.92, -19636.83, -15688.85, -19384.01, -20626.70, -23460.57, -21857.75, 0.000, 0.000, 0.000, 10:42:50.251, 1583739770251
214, -25439.68, -30570.46, -19556.93, -15621.43, -18921.67, -20595.10, -23230.41, -21649.74, 0.000, 0.000, 0.000, 10:42:50.251, 1583739770251
215, -24933.79, -30524.01, -19452.92, -15542.04, -18365.36, -20562.58, -23007.41, -21389.86, 0.000, 0.000, 0.000, 10:42:50.251, 1583739770251
216, -25196.92, -30572.78, -19496.73, -15554.18, -18559.41, -20574.18, -23169.17, -21487.58, 0.000, 0.000, 0.000, 10:42:50.251, 1583739770251
217, -25686.82, -30607.72, -19603.73, -15662.63, -19153.52, -20625.47, -23400.91, -21747.44, 0.000, 0.000, 0.000, 10:42:50.251, 1583739770251
218, -25862.76, -30619.52, -19663.52, -15720.79, -19404.29, -20650.91, -23473.96, -21871.79, 0.000, 0.000, 0.000, 10:42:50.252, 1583739770252
219, -25422.83, -30559.44, -19599.71, -15670.34, -18954.08, -20636.18, -23255.78, -21680.81, 0.000, 0.000, 0.000, 10:42:50.252, 1583739770252
220, -24921.39, -30511.47, -19501.29, -15596.22, -18406.08, -20613.27, -23035.82, -21426.81, 0.006, -0.020, 0.968, 10:42:50.252, 1583739770252
221, -25182.35, -30557.20, -19529.81, -15591.39, -18586.39, -20614.90, -23188.95, -21513.66, 0.000, 0.000, 0.000, 10:42:50.252, 1583739770252
222, -25671.67, -30592.45, -19624.43, -15686.41, -19167.38, -20655.56, -23411.13, -21764.00, 0.000, 0.000, 0.000, 10:42:50.252, 1583739770252
223, -25844.07, -30587.18, -19670.03, -15732.83, -19409.29, -20668.14, -23471.19, -21875.56, 0.000, 0.000, 0.000, 10:42:50.252, 1583739770252
224, -25398.76, -30526.47, -19588.42, -15665.91, -18947.19, -20636.31, -23241.83, -21670.60, 0.000, 0.000, 0.000, 10:42:50.252, 1583739770252
225, -24897.09, -30473.94, -19484.73, -15587.64, -18390.63, -20605.96, -23018.52, -21413.24, 0.000, 0.000, 0.000, 10:42:50.253, 1583739770253
226, -25163.71, -30525.80, -19520.56, -15593.49, -18573.74, -20611.64, -23172.19, -21503.74, 0.000, 0.000, 0.000, 10:42:50.253, 1583739770253
227, -25657.92, -30565.90, -19622.48, -15692.06, -19158.28, -20655.34, -23398.01, -21757.84, 0.000, 0.000, 0.000, 10:42:50.253, 1583739770253
228, -25837.61, -30577.34, -19668.95, -15726.53, -19403.75, -20662.71, -23463.68, -21870.13, 0.000, 0.000, 0.000, 10:42:50.253, 1583739770253
229, -25409.46, -30534.22, -19585.60, -15652.68, -18946.54, -20628.04, -23240.58, -21667.69, 0.000, 0.000, 0.000, 10:42:50.253, 1583739770253
230, -24907.35, -30493.70, -19476.50, -15573.26, -18388.20, -20597.18, -23017.85, -21411.03, 0.004, -0.018, 0.970, 10:42:50.253, 1583739770253
231, -25168.09, -30544.71, -19511.96, -15582.56, -18570.59, -20605.13, -23175.61, -21505.22, 0.000, 0.000, 0.000, 10:42:50.254, 1583739770254
232, -25661.25, -30587.49, -19604.85, -15676.98, -19148.18, -20646.51, -23401.31, -21757.39, 0.000, 0.000, 0.000, 10:42:50.254, 1583739770254
233, -25846.82, -30593.68, -19653.75, -15714.28, -19394.83, -20655.78, -23468.97, -21872.03, 0.000, 0.000, 0.000, 10:42:50.254, 1583739770254
234, -25415.77, -30534.63, -19575.68, -15638.55, -18940.96, -20620.51, -23245.90, -21668.79, 0.000, 0.000, 0.000, 10:42:50.254, 1583739770254
235, -24906.97, -30488.11, -19471.39, -15563.36, -18384.26, -20591.25, -23020.82, -21411.38, 0.000, 0.000, 0.000, 10:42:50.254, 1583739770254
236, -25165.76, -30534.70, -19506.86, -15571.81, -18561.85, -20597.22, -23173.82, -21500.57, 0.000, 0.000, 0.000, 10:42:50.254, 1583739770254
237, -25656.27, -30574.37, -19604.69, -15672.35, -19143.49, -20642.39, -23397.38, -21751.71, 0.000, 0.000, 0.000, 10:42:50.254, 1583739770254
238, -25838.39, -30586.60, -19657.67, -15722.28, -19397.60, -20658.31, -23464.23, -21871.03, 0.000, 0.000, 0.000, 10:42:50.254, 1583739770254
239, -25413.02, -30527.99, -19583.59, -15659.05, -18951.66, -20631.08, -23245.97, -21676.52, 0.000, 0.000, 0.000, 10:42:50.254, 1583739770254
240, -24905.99, -30487.13, -19487.68, -15588.60, -18397.29, -20608.78, -23024.24, -21424.44, 0.004, -0.018, 0.974, 10:42:50.255, 1583739770255
241, -25166.99, -30548.55, -19530.89, -15607.44, -18581.72, -20626.10, -23183.59, -21522.03, 0.000, 0.000, 0.000, 10:42:50.255, 1583739770255
242, -25655.94, -30588.79, -19625.88, -15706.19, -19161.79, -20670.27, -23406.79, -21772.14, 0.000, 0.000, 0.000, 10:42:50.713, 1583739770713
243, -25840.58, -30599.40, -19675.14, -15746.13, -19413.52, -20680.77, -23473.33, -21887.36, 0.000, 0.000, 0.000, 10:42:50.713, 1583739770713
244, -25415.90, -30537.62, -19596.76, -15677.98, -18970.62, -20646.84, -23253.01, -21688.21, 0.000, 0.000, 0.000, 10:42:50.713, 1583739770713
245, -24913.23, -30480.22, -19497.69, -15605.70, -18414.30, -20622.52, -23033.07, -21434.90, 0.000, 0.000, 0.000, 10:42:50.713, 1583739770713
246, -25170.61, -30538.34, -19537.57, -15616.29, -18590.75, -20633.90, -23191.88, -21525.69, 0.000, 0.000, 0.000, 10:42:50.713, 1583739770713
247, -25656.11, -30584.54, -19627.24, -15699.80, -19160.74, -20665.66, -23409.81, -21764.81, 0.000, 0.000, 0.000, 10:42:50.713, 1583739770713
248, -25839.58, -30599.63, -19665.33, -15721.72, -19405.58, -20663.16, -23469.31, -21871.54, 0.000, 0.000, 0.000, 10:42:50.714, 1583739770714
249, -25416.19, -30539.66, -19589.83, -15652.99, -18965.01, -20633.74, -23252.65, -21678.93, 0.000, 0.000, 0.000, 10:42:50.714, 1583739770714
250, -24905.74, -30479.53, -19493.16, -15585.85, -18408.85, -20610.59, -23031.66, -21425.64, 0.000, 0.000, 0.000, 10:42:50.714, 1583739770714
251, -25155.57, -30528.93, -19532.27, -15596.71, -18584.27, -20619.75, -23186.74, -21514.45, 0.002, -0.020, 0.974, 10:42:50.714, 1583739770714
252, -25651.49, -30574.06, -19622.91, -15684.04, -19155.71, -20654.49, -23403.91, -21755.42, 0.000, 0.000, 0.000, 10:42:50.714, 1583739770714
253, -25839.13, -30587.06, -19659.07, -15720.92, -19402.68, -20661.97, -23466.13, -21867.83, 0.000, 0.000, 0.000, 10:42:50.714, 1583739770714
254, -25411.12, -30528.57, -19580.89, -15651.27, -18962.79, -20629.61, -23247.27, -21671.45, 0.000, 0.000, 0.000, 10:42:50.714, 1583739770714
255, -24904.87, -30476.98, -19480.75, -15571.25, -18402.57, -20598.67, -23022.79, -21412.12, 0.000, 0.000, 0.000, 10:42:50.718, 1583739770718
0, -25160.80, -30525.20, -19520.72, -15583.10, -18572.35, -20609.47, -23178.67, -21501.91, 0.000, 0.000, 0.000, 10:42:50.718, 1583739770718
1, -25648.94, -30575.02, -19619.29, -15684.75, -19150.86, -20656.97, -23404.35, -21753.10, 0.000, 0.000, 0.000, 10:42:50.719, 1583739770719
2, -25837.23, -30587.47, -19670.83, -15736.32, -19411.42, -20674.45, -23476.17, -21877.24, 0.000, 0.000, 0.000, 10:42:50.719, 1583739770719
3, -25423.12, -30533.91, -19592.55, -15665.22, -18970.64, -20640.70, -23259.18, -21683.81, 0.000, 0.000, 0.000, 10:42:50.719, 1583739770719
4, -24910.73, -30490.59, -19483.03, -15579.25, -18403.35, -20604.62, -23028.87, -21421.53, 0.000, 0.000, 0.000, 10:42:50.719, 1583739770719
5, -25154.85, -30542.45, -19512.87, -15583.77, -18562.25, -20610.45, -23174.78, -21505.06, 0.002, -0.018, 0.970, 10:42:50.719, 1583739770719
6, -25641.72, -30588.90, -19613.74, -15685.20, -19143.08, -20658.51, -23398.90, -21756.54, 0.000, 0.000, 0.000, 10:42:50.719, 1583739770719
7, -25835.69, -30586.28, -19666.38, -15736.21, -19405.13, -20675.50, -23469.04, -21879.25, 0.000, 0.000, 0.000, 10:42:50.719, 1583739770719
8, -25426.16, -30532.68, -19594.57, -15675.97, -18973.88, -20648.90, -23257.15, -21692.05, 0.000, 0.000, 0.000, 10:42:50.719, 1583739770719
9, -24917.14, -30492.83, -19489.51, -15595.57, -18411.20, -20618.84, -23031.21, -21432.80, 0.000, 0.000, 0.000, 10:42:50.719, 1583739770719
10, -25161.78, -30539.05, -19513.09, -15583.50, -18564.06, -20613.98, -23172.75, -21506.91, 0.000, 0.000, 0.000, 10:42:50.719, 1583739770719
11, -25651.40, -30582.33, -19612.92, -15684.35, -19141.47, -20660.79, -23397.65, -21757.50, 0.000, 0.000, 0.000, 10:42:50.721, 1583739770721
12, -25837.48, -30583.13, -19662.36, -15727.07, -19402.45, -20672.26, -23466.09, -21876.08, 0.000, 0.000, 0.000, 10:42:50.721, 1583739770721
13, -25431.93, -30532.77, -19584.24, -15652.19, -18969.68, -20635.04, -23253.44, -21682.69, 0.000, 0.000, 0.000, 10:42:50.721, 1583739770721
14, -24922.62, -30495.58, -19481.49, -15577.09, -18403.78, -20607.17, -23026.88, -21424.35, 0.000, 0.000, 0.000, 10:42:50.721, 1583739770721
15, -25162.83, -30534.43, -19521.28, -15588.33, -18566.45, -20617.58, -23179.59, -21510.45, 0.006, -0.018, 0.972, 10:42:50.721, 1583739770721
16, -25645.32, -30578.79, -19619.85, -15685.09, -19143.82, -20659.40, -23405.52, -21756.47, 0.000, 0.000, 0.000, 10:42:50.721, 1583739770721
17, -25835.91, -30592.29, -19669.11, -15732.30, -19407.95, -20673.84, -23474.61, -21875.94, 0.000, 0.000, 0.000, 10:42:50.721, 1583739770721
18, -25433.42, -30534.09, -19590.50, -15658.20, -18975.83, -20636.00, -23258.91, -21683.81, 0.000, 0.000, 0.000, 10:42:50.722, 1583739770722
19, -24923.98, -30480.11, -19488.17, -15581.31, -18408.09, -20608.31, -23031.37, -21426.36, 0.000, 0.000, 0.000, 10:42:50.722, 1583739770722
20, -25169.47, -30530.94, -19522.39, -15588.17, -18562.61, -20614.59, -23177.69, -21508.48, 0.000, 0.000, 0.000, 10:42:50.722, 1583739770722
21, -25657.05, -30579.06, -19614.71, -15678.65, -19133.92, -20651.92, -23397.02, -21749.45, 0.000, 0.000, 0.000, 10:42:50.722, 1583739770722
22, -25846.53, -30587.71, -19664.88, -15730.69, -19401.58, -20669.42, -23467.92, -21873.73, 0.000, 0.000, 0.000, 10:42:50.722, 1583739770722
23, -25448.24, -30539.46, -19596.24, -15669.69, -18981.91, -20641.57, -23263.14, -21691.76, 0.000, 0.000, 0.000, 10:42:50.722, 1583739770722
24, -24925.26, -30482.17, -19487.81, -15580.66, -18409.25, -20603.19, -23028.80, -21425.00, 0.000, 0.000, 0.000, 10:42:50.722, 1583739770722
25, -25159.66, -30524.59, -19515.84, -15573.93, -18560.53, -20603.50, -23171.85, -21500.12, 0.006, -0.022, 0.972, 10:42:50.722, 1583739770722
26, -25647.33, -30573.25, -19613.59, -15680.46, -19139.11, -20651.29, -23394.12, -21750.46, 0.000, 0.000, 0.000, 10:42:50.722, 1583739770722
27, -25849.48, -30591.38, -19674.14, -15745.69, -19415.51, -20678.74, -23474.45, -21883.63, 0.000, 0.000, 0.000, 10:42:50.722, 1583739770722
28, -25437.56, -30531.97, -19598.79, -15674.03, -18990.47, -20643.15, -23263.38, -21693.96, 0.000, 0.000, 0.000, 10:42:50.722, 1583739770722
29, -24919.54, -30487.20, -19488.96, -15581.20, -18416.74, -20605.60, -23028.71, -21426.02, 0.000, 0.000, 0.000, 10:42:50.722, 1583739770722
30, -25162.23, -30545.09, -19520.65, -15578.09, -18565.34, -20609.69, -23172.79, -21501.68, 0.000, 0.000, 0.000, 10:42:50.724, 1583739770724
31, -25645.81, -30577.21, -19616.87, -15675.84, -19136.24, -20652.97, -23393.83, -21746.88, 0.000, 0.000, 0.000, 10:42:50.724, 1583739770724
32, -25840.61, -30584.83, -19669.06, -15730.73, -19406.97, -20670.24, -23466.65, -21872.90, 0.000, 0.000, 0.000, 10:42:50.724, 1583739770724
33, -25445.13, -30543.86, -19597.58, -15664.88, -18989.28, -20638.24, -23259.16, -21689.69, 0.000, 0.000, 0.000, 10:42:50.724, 1583739770724
34, -24923.47, -30488.96, -19494.30, -15581.67, -18417.57, -20605.94, -23027.91, -21425.13, 0.000, 0.000, 0.000, 10:42:50.725, 1583739770725
35, -25156.40, -30528.59, -19532.27, -15587.86, -18568.85, -20614.83, -23175.27, -21503.76, 0.004, -0.020, 0.974, 10:42:50.725, 1583739770725
36, -25643.46, -30575.11, -19622.24, -15682.50, -19140.94, -20656.83, -23397.69, -21748.94, 0.000, 0.000, 0.000, 10:42:50.725, 1583739770725
37, -25846.71, -30586.82, -19669.18, -15732.72, -19414.93, -20672.59, -23473.15, -21874.13, 0.000, 0.000, 0.000, 10:42:50.725, 1583739770725
38, -25456.89, -30536.91, -19604.94, -15671.41, -19003.23, -20646.02, -23271.25, -21696.81, 0.000, 0.000, 0.000, 10:42:50.725, 1583739770725
39, -24928.50, -30486.41, -19494.65, -15587.64, -18423.16, -20610.03, -23032.85, -21427.46, 0.000, 0.000, 0.000, 10:42:50.725, 1583739770725
40, -25159.03, -30535.34, -19518.75, -15585.78, -18559.59, -20610.68, -23170.29, -21497.37, 0.000, 0.000, 0.000, 10:42:50.725, 1583739770725
41, -25649.88, -30581.54, -19616.52, -15683.57, -19130.28, -20654.40, -23392.33, -21743.64, 0.000, 0.000, 0.000, 10:42:50.726, 1583739770726
42, -25851.67, -30590.66, -19667.95, -15733.15, -19406.21, -20666.56, -23466.18, -21866.64, 0.000, 0.000, 0.000, 10:42:50.726, 1583739770726
43, -25462.44, -30537.51, -19595.42, -15660.15, -18992.99, -20628.89, -23260.48, -21682.06, 0.000, 0.000, 0.000, 10:42:50.726, 1583739770726
44, -24933.95, -30485.90, -19486.14, -15570.76, -18413.14, -20590.98, -23022.74, -21412.23, 0.000, 0.000, 0.000, 10:42:50.726, 1583739770726
45, -25159.10, -30527.50, -19519.31, -15568.48, -18553.33, -20595.21, -23163.31, -21485.99, 0.004, -0.022, 0.974, 10:42:50.726, 1583739770726
46, -25645.92, -30569.72, -19612.00, -15668.68, -19121.45, -20639.87, -23386.83, -21734.79, 0.000, 0.000, 0.000, 10:42:50.726, 1583739770726
47, -25843.47, -30576.18, -19664.21, -15727.71, -19396.75, -20660.16, -23461.78, -21864.34, 0.000, 0.000, 0.000, 10:42:50.727, 1583739770727
48, -25458.68, -30530.74, -19603.31, -15673.24, -18992.61, -20639.18, -23263.76, -21692.12, 0.000, 0.000, 0.000, 10:42:50.727, 1583739770727
49, -24936.97, -30488.05, -19491.82, -15586.92, -18414.13, -20606.05, -23027.08, -21426.65, 0.000, 0.000, 0.000, 10:42:50.727, 1583739770727
50, -25159.66, -30539.34, -19521.05, -15583.48, -18550.81, -20609.63, -23166.44, -21498.51, 0.000, 0.000, 0.000, 10:42:50.727, 1583739770727
51, -25644.07, -30588.61, -19624.25, -15687.26, -19128.78, -20657.95, -23394.88, -21748.20, 0.000, 0.000, 0.000, 10:42:50.727, 1583739770727
52, -25846.37, -30588.76, -19675.48, -15733.86, -19404.42, -20672.70, -23468.95, -21871.83, 0.000, 0.000, 0.000, 10:42:50.728, 1583739770728
53, -25458.52, -30534.45, -19603.40, -15667.46, -18995.63, -20642.89, -23267.47, -21693.57, 0.000, 0.000, 0.000, 10:42:50.728, 1583739770728
54, -24937.75, -30479.55, -19497.43, -15588.46, -18420.38, -20613.94, -23034.28, -21432.51, 0.000, 0.000, 0.000, 10:42:50.728, 1583739770728
55, -25155.64, -30528.26, -19528.32, -15588.91, -18551.75, -20619.01, -23172.41, -21502.47, 0.004, -0.022, 0.972, 10:42:50.728, 1583739770728
56, -25642.12, -30576.09, -19623.82, -15682.01, -19123.32, -20658.42, -23392.26, -21742.28, 0.000, 0.000, 0.000, 10:42:50.728, 1583739770728
57, -25839.11, -30583.22, -19670.03, -15729.03, -19398.25, -20669.46, -23462.47, -21863.56, 0.000, 0.000, 0.000, 10:42:50.728, 1583739770728
58, -25452.40, -30532.62, -19601.79, -15669.78, -18996.32, -20642.66, -23264.28, -21691.45, 0.000, 0.000, 0.000, 10:42:50.728, 1583739770728
59, -24930.33, -30481.95, -19493.74, -15585.47, -18417.32, -20608.96, -23028.15, -21424.64, 0.000, 0.000, 0.000, 10:42:50.728, 1583739770728
60, -25151.99, -30528.41, -19519.62, -15580.82, -18546.20, -20608.06, -23164.27, -21490.84, 0.000, 0.000, 0.000, 10:42:50.729, 1583739770729
61, -25645.74, -30585.32, -19616.61, -15676.80, -19113.83, -20648.79, -23386.00, -21734.10, 0.000, 0.000, 0.000, 10:42:50.729, 1583739770729
62, -25847.89, -30588.72, -19668.33, -15723.78, -19395.08, -20661.37, -23463.79, -21860.14, 0.000, 0.000, 0.000, 10:42:50.729, 1583739770729
63, -25466.48, -30533.20, -19596.96, -15660.39, -18995.67, -20631.35, -23265.97, -21686.76, 0.000, 0.000, 0.000, 10:42:50.729, 1583739770729
64, -24941.06, -30486.15, -19490.25, -15580.44, -18415.58, -20601.13, -23028.98, -21420.88, 0.000, 0.000, 0.000, 10:42:50.729, 1583739770729
65, -25160.69, -30541.20, -19524.20, -15586.32, -18547.28, -20610.19, -23169.64, -21493.10, 0.004, -0.022, 0.968, 10:42:50.729, 1583739770729
66, -25643.44, -30580.87, -19622.60, -15680.17, -19118.07, -20652.03, -23394.65, -21737.76, 0.000, 0.000, 0.000, 10:42:50.729, 1583739770729
67, -25847.73, -30575.04, -19678.07, -15734.89, -19409.34, -20670.65, -23474.76, -21871.40, 0.000, 0.000, 0.000, 10:42:50.729, 1583739770729
68, -25465.28, -30523.52, -19604.74, -15667.66, -19008.41, -20637.52, -23271.54, -21697.02, 0.000, 0.000, 0.000, 10:42:50.730, 1583739770730
69, -24933.82, -30486.91, -19499.30, -15592.82, -18428.90, -20611.48, -23034.97, -21435.88, 0.000, 0.000, 0.000, 10:42:50.730, 1583739770730
70, -25144.10, -30538.58, -19533.10, -15600.35, -18555.46, -20621.07, -23174.67, -21507.38, 0.000, 0.000, 0.000, 10:42:50.730, 1583739770730
71, -25636.24, -30579.89, -19630.51, -15692.20, -19126.77, -20661.39, -23399.71, -21748.83, 0.000, 0.000, 0.000, 10:42:50.730, 1583739770730
72, -25850.91, -30581.86, -19681.07, -15741.91, -19415.33, -20677.42, -23476.80, -21879.38, 0.000, 0.000, 0.000, 10:42:50.730, 1583739770730
73, -25471.85, -30533.96, -19604.76, -15668.88, -19015.14, -20642.04, -23276.37, -21703.34, 0.000, 0.000, 0.000, 10:42:50.730, 1583739770730
74, -24932.72, -30487.98, -19495.19, -15586.45, -18429.68, -20609.11, -23035.73, -21432.66, 0.000, 0.000, 0.000, 10:42:50.730, 1583739770730
75, -25146.16, -30527.83, -19526.71, -15594.10, -18552.55, -20617.67, -23171.70, -21499.79, 0.004, -0.018, 0.972, 10:42:50.730, 1583739770730
76, -25638.54, -30572.54, -19630.80, -15697.88, -19128.64, -20667.76, -23401.11, -21749.50, 0.000, 0.000, 0.000, 10:42:50.730, 1583739770730
77, -25848.00, -30571.15, -19683.86, -15742.42, -19419.80, -20679.63, -23480.04, -21877.84, 0.000, 0.000, 0.000, 10:42:50.731, 1583739770731
78, -25471.87, -30533.02, -19606.05, -15661.44, -19017.96, -20637.46, -23277.04, -21697.62, 0.000, 0.000, 0.000, 10:42:50.731, 1583739770731
79, -24936.12, -30487.98, -19488.37, -15574.05, -18427.78, -20601.20, -23033.18, -21424.32, 0.000, 0.000, 0.000, 10:42:50.731, 1583739770731
80, -25136.28, -30525.96, -19513.54, -15574.67, -18542.27, -20605.04, -23164.47, -21486.37, 0.000, 0.000, 0.000, 10:42:50.731, 1583739770731
81, -25614.18, -30565.36, -19616.67, -15679.46, -19117.27, -20653.37, -23392.80, -21733.90, 0.000, 0.000, 0.000, 10:42:50.731, 1583739770731
82, -25833.05, -30574.53, -19679.59, -15743.09, -19417.12, -20678.87, -23480.15, -21872.75, 0.000, 0.000, 0.000, 10:42:50.731, 1583739770731
83, -25479.24, -30532.35, -19612.40, -15672.51, -19024.55, -20644.99, -23285.15, -21701.38, 0.000, 0.000, 0.000, 10:42:50.731, 1583739770731
84, -24944.95, -30472.76, -19499.30, -15580.93, -18435.47, -20607.12, -23040.20, -21428.08, 0.000, 0.000, 0.000, 10:42:50.731, 1583739770731
85, -25143.12, -30515.54, -19523.51, -15580.15, -18544.88, -20609.51, -23167.47, -21489.01, 0.000, 0.000, 0.000, 10:42:50.732, 1583739770732
86, -25634.34, -30568.04, -19627.31, -15684.06, -19118.05, -20656.99, -23395.06, -21737.92, -0.002, -0.016, 0.976, 10:42:50.732, 1583739770732
87, -25844.23, -30574.48, -19688.58, -15742.38, -19420.25, -20678.13, -23478.29, -21874.47, 0.000, 0.000, 0.000, 10:42:50.732, 1583739770732
88, -25480.79, -30530.13, -19625.01, -15675.84, -19036.06, -20647.83, -23287.77, -21709.98, 0.000, 0.000, 0.000, 10:42:50.732, 1583739770732
89, -24944.41, -30490.21, -19503.93, -15586.41, -18442.60, -20611.91, -23041.79, -21437.58, 0.000, 0.000, 0.000, 10:42:50.732, 1583739770732
90, -25142.49, -30526.18, -19524.45, -15579.43, -18544.15, -20613.13, -23167.52, -21495.02, 0.000, 0.000, 0.000, 10:42:50.732, 1583739770732
91, -25631.95, -30572.80, -19622.89, -15682.81, -19114.90, -20661.01, -23393.58, -21742.28, 0.000, 0.000, 0.000, 10:42:50.732, 1583739770732
92, -25847.09, -30586.10, -19680.06, -15744.88, -19414.39, -20682.76, -23476.19, -21879.29, 0.000, 0.000, 0.000, 10:42:50.732, 1583739770732
93, -25476.49, -30536.64, -19612.02, -15676.53, -19026.83, -20649.01, -23279.65, -21709.62, 0.000, 0.000, 0.000, 10:42:50.732, 1583739770732
94, -24938.94, -30478.84, -19504.22, -15593.83, -18440.21, -20617.52, -23038.70, -21440.11, 0.000, 0.000, 0.000, 10:42:50.733, 1583739770733
95, -25135.74, -30518.54, -19526.13, -15589.67, -18542.49, -20618.84, -23166.22, -21497.73, 0.000, 0.000, 0.000, 10:42:50.733, 1583739770733
96, -25625.71, -30565.36, -19620.52, -15684.15, -19107.59, -20660.83, -23389.85, -21741.05, 0.000, -0.016, 0.978, 10:42:50.733, 1583739770733
97, -25846.10, -30566.70, -19680.40, -15743.14, -19410.30, -20680.53, -23473.33, -21877.28, 0.000, 0.000, 0.000, 10:42:50.733, 1583739770733
98, -25488.65, -30534.07, -19620.38, -15682.50, -19031.71, -20651.76, -23286.07, -21714.54, 0.000, 0.000, 0.000, 10:42:50.733, 1583739770733
99, -24950.27, -30492.94, -19507.95, -15594.12, -18440.05, -20615.77, -23041.14, -21439.70, 0.000, 0.000, 0.000, 10:42:50.733, 1583739770733
100, -25138.60, -30536.95, -19525.90, -15588.49, -18537.66, -20616.69, -23163.43, -21495.16, 0.000, 0.000, 0.000, 10:42:50.734, 1583739770734
101, -25627.44, -30577.81, -19624.63, -15685.49, -19109.27, -20660.74, -23390.18, -21740.74, 0.000, 0.000, 0.000, 10:42:50.734, 1583739770734
102, -25846.57, -30571.62, -19676.73, -15736.61, -19413.03, -20674.20, -23471.43, -21872.43, 0.000, 0.000, 0.000, 10:42:50.734, 1583739770734
103, -25483.92, -30522.02, -19614.86, -15679.01, -19036.13, -20647.24, -23284.93, -21711.05, 0.000, 0.000, 0.000, 10:42:50.734, 1583739770734
104, -24934.02, -30476.63, -19504.73, -15593.54, -18441.87, -20613.92, -23038.75, -21438.90, 0.000, 0.000, 0.000, 10:42:50.734, 1583739770734
105, -25131.00, -30525.04, -19522.95, -15582.92, -18535.47, -20611.08, -23159.24, -21489.90, 0.000, 0.000, 0.000, 10:42:50.734, 1583739770734
106, -25626.92, -30565.94, -19612.96, -15668.15, -19097.75, -20645.54, -23382.18, -21727.21, -0.002, -0.022, 0.976, 10:42:51.194, 1583739771194
107, -25847.60, -30578.77, -19669.82, -15724.59, -19403.88, -20663.90, -23466.47, -21862.78, 0.000, 0.000, 0.000, 10:42:51.195, 1583739771195
108, -25489.97, -30531.01, -19607.51, -15665.13, -19031.48, -20635.00, -23279.05, -21701.35, 0.000, 0.000, 0.000, 10:42:51.195, 1583739771195
109, -24945.33, -30472.85, -19496.89, -15586.85, -18437.51, -20602.65, -23033.16, -21427.92, 0.000, 0.000, 0.000, 10:42:51.195, 1583739771195
110, -25131.21, -30523.32, -19519.42, -15584.91, -18532.77, -20606.99, -23156.70, -21482.64, 0.000, 0.000, 0.000, 10:42:51.195, 1583739771195
111, -25622.38, -30573.03, -19620.67, -15676.91, -19106.43, -20650.42, -23385.31, -21728.62, 0.000, 0.000, 0.000, 10:42:51.195, 1583739771195
112, -25846.42, -30582.82, -19686.79, -15739.61, -19422.53, -20675.29, -23477.53, -21873.48, 0.000, 0.000, 0.000, 10:42:51.195, 1583739771195
113, -25491.96, -30528.88, -19618.84, -15679.23, -19045.05, -20645.05, -23288.08, -21713.24, 0.000, 0.000, 0.000, 10:42:51.195, 1583739771195
114, -24946.60, -30479.53, -19496.35, -15588.69, -18441.89, -20606.65, -23036.80, -21436.64, 0.000, 0.000, 0.000, 10:42:51.195, 1583739771195
115, -25135.81, -30525.60, -19516.11, -15579.30, -18530.04, -20607.62, -23157.88, -21487.56, 0.000, 0.000, 0.000, 10:42:51.196, 1583739771196
116, -25624.78, -30563.93, -19614.19, -15677.42, -19098.31, -20653.55, -23384.37, -21733.18, 0.004, -0.024, 0.970, 10:42:51.196, 1583739771196
117, -25848.50, -30574.93, -19673.27, -15738.09, -19408.60, -20674.71, -23470.61, -21874.06, 0.000, 0.000, 0.000, 10:42:51.196, 1583739771196
118, -25502.49, -30533.42, -19617.46, -15682.97, -19045.63, -20651.78, -23290.34, -21719.10, 0.000, 0.000, 0.000, 10:42:51.196, 1583739771196
119, -24956.79, -30477.74, -19508.42, -15598.63, -18449.06, -20618.39, -23043.62, -21445.34, 0.000, 0.000, 0.000, 10:42:51.196, 1583739771196
120, -25136.10, -30522.54, -19526.80, -15591.37, -18536.05, -20621.12, -23165.06, -21497.26, 0.000, 0.000, 0.000, 10:42:51.196, 1583739771196
121, -25624.82, -30571.37, -19621.23, -15681.67, -19105.13, -20661.77, -23389.78, -21738.39, 0.000, 0.000, 0.000, 10:42:51.203, 1583739771203
122, -25848.96, -30584.03, -19681.25, -15741.10, -19420.25, -20681.49, -23478.41, -21877.04, 0.000, 0.000, 0.000, 10:42:51.203, 1583739771203
123, -25498.73, -30532.37, -19621.03, -15681.25, -19054.57, -20651.31, -23295.52, -21719.35, 0.000, 0.000, 0.000, 10:42:51.203, 1583739771203
124, -24952.01, -30483.11, -19506.75, -15594.07, -18456.77, -20614.59, -23046.01, -21443.06, 0.000, 0.000, 0.000, 10:42:51.203, 1583739771203
125, -25126.67, -30535.52, -19523.40, -15587.55, -18539.34, -20614.77, -23162.98, -21492.27, 0.000, 0.000, 0.000, 10:42:51.204, 1583739771204
126, -25615.79, -30575.06, -19618.97, -15689.11, -19102.74, -20658.82, -23387.34, -21735.60, -0.002, -0.026, 0.980, 10:42:51.204, 1583739771204
127, -25849.86, -30583.20, -19681.69, -15753.82, -19420.96, -20681.58, -23478.72, -21879.05, 0.000, 0.000, 0.000, 10:42:51.204, 1583739771204
128, -25504.93, -30527.70, -19612.83, -15673.62, -19050.73, -20639.20, -23289.33, -21712.82, 0.000, 0.000, 0.000, 10:42:51.204, 1583739771204
129, -24950.71, -30472.13, -19499.86, -15585.16, -18448.35, -20603.32, -23036.69, -21432.84, 0.000, 0.000, 0.000, 10:42:51.204, 1583739771204
130, -25118.87, -30528.39, -19520.22, -15575.05, -18526.71, -20602.38, -23153.32, -21477.30, 0.000, 0.000, 0.000, 10:42:51.204, 1583739771204
131, -25610.27, -30576.85, -19617.50, -15672.42, -19093.82, -20648.09, -23381.38, -21722.23, 0.000, 0.000, 0.000, 10:42:51.204, 1583739771204
132, -25842.06, -30581.63, -19675.48, -15736.86, -19411.73, -20672.72, -23470.40, -21867.18, 0.000, 0.000, 0.000, 10:42:51.205, 1583739771205
133, -25503.83, -30544.84, -19610.59, -15670.96, -19047.49, -20641.01, -23287.90, -21711.01, 0.000, 0.000, 0.000, 10:42:51.205, 1583739771205
134, -24947.32, -30490.62, -19496.89, -15582.21, -18446.22, -20604.78, -23036.20, -21433.96, 0.000, 0.000, 0.000, 10:42:51.205, 1583739771205
135, -25120.92, -30525.98, -19516.38, -15574.54, -18523.87, -20605.80, -23152.83, -21479.98, 0.000, 0.000, 0.000, 10:42:51.205, 1583739771205
136, -25614.90, -30563.53, -19616.05, -15674.36, -19094.18, -20652.32, -23382.85, -21727.50, -0.004, -0.020, 0.976, 10:42:51.206, 1583739771206
137, -25836.74, -30573.77, -19668.55, -15729.64, -19409.96, -20669.89, -23469.00, -21868.66, 0.000, 0.000, 0.000, 10:42:51.206, 1583739771206
138, -25501.80, -30532.62, -19610.93, -15671.50, -19054.86, -20643.24, -23290.83, -21718.21, 0.000, 0.000, 0.000, 10:42:51.207, 1583739771207
139, -24957.91, -30488.36, -19501.74, -15589.29, -18457.42, -20613.58, -23039.71, -21445.07, 0.000, 0.000, 0.000, 10:42:51.207, 1583739771207
140, -25127.05, -30541.91, -19520.58, -15583.99, -18534.45, -20617.40, -23153.93, -21491.67, 0.000, 0.000, 0.000, 10:42:51.207, 1583739771207
141, -25613.69, -30578.64, -19614.86, -15678.32, -19097.24, -20658.51, -23380.19, -21734.32, 0.000, 0.000, 0.000, 10:42:51.208, 1583739771208
142, -25850.89, -30592.32, -19677.07, -15741.53, -19415.51, -20680.04, -23475.46, -21879.61, 0.000, 0.000, 0.000, 10:42:51.208, 1583739771208
143, -25509.31, -30547.77, -19617.14, -15681.67, -19057.88, -20648.74, -23296.93, -21726.63, 0.000, 0.000, 0.000, 10:42:51.208, 1583739771208
144, -24958.43, -30482.79, -19505.52, -15593.11, -18455.61, -20614.25, -23046.06, -21449.13, 0.000, 0.000, 0.000, 10:42:51.208, 1583739771208
145, -25119.05, -30518.58, -19522.44, -15578.67, -18525.84, -20612.02, -23155.98, -21487.76, 0.000, 0.000, 0.000, 10:42:51.208, 1583739771208
146, -25606.13, -30574.88, -19623.31, -15678.09, -19098.98, -20658.96, -23386.14, -21733.88, 0.002, -0.020, 0.976, 10:42:51.208, 1583739771208
147, -25841.30, -30582.10, -19681.65, -15740.97, -19423.04, -20681.53, -23478.85, -21879.59, 0.000, 0.000, 0.000, 10:42:51.209, 1583739771209
148, -25511.41, -30533.35, -19619.06, -15675.72, -19065.93, -20647.60, -23299.53, -21724.44, 0.000, 0.000, 0.000, 10:42:51.209, 1583739771209
149, -24957.53, -30480.87, -19511.04, -15592.42, -18467.88, -20615.33, -23050.55, -21446.99, 0.000, 0.000, 0.000, 10:42:51.209, 1583739771209
150, -25120.28, -30525.35, -19528.61, -15586.83, -18535.36, -20616.35, -23162.64, -21489.01, 0.000, 0.000, 0.000, 10:42:51.209, 1583739771209
151, -25613.82, -30574.97, -19618.39, -15681.56, -19097.78, -20658.46, -23387.26, -21731.86, 0.000, 0.000, 0.000, 10:42:51.209, 1583739771209
152, -25843.73, -30584.43, -19675.93, -15738.76, -19419.62, -20675.68, -23475.50, -21873.44, 0.000, 0.000, 0.000, 10:42:51.209, 1583739771209
153, -25515.10, -30542.23, -19617.63, -15677.45, -19067.58, -20645.03, -23300.06, -21724.60, 0.000, 0.000, 0.000, 10:42:51.209, 1583739771209
154, -24959.32, -30485.34, -19504.11, -15594.83, -18462.36, -20613.96, -23045.99, -21448.44, 0.000, 0.000, 0.000, 10:42:51.210, 1583739771210
155, -25107.69, -30522.24, -19523.15, -15586.68, -18528.28, -20615.71, -23155.31, -21489.70, 0.000, 0.000, 0.000, 10:42:51.210, 1583739771210
156, -25595.79, -30565.76, -19618.84, -15677.00, -19089.89, -20657.53, -23378.63, -21730.50, 0.004, -0.020, 0.974, 10:42:51.210, 1583739771210
157, -25828.60, -30569.56, -19678.16, -15741.68, -19412.67, -20680.37, -23469.04, -21874.76, 0.000, 0.000, 0.000, 10:42:51.210, 1583739771210
158, -25504.05, -30525.53, -19620.27, -15682.90, -19063.51, -20647.31, -23293.58, -21723.28, 0.000, 0.000, 0.000, 10:42:51.210, 1583739771210
159, -24946.15, -30466.41, -19501.11, -15587.46, -18451.74, -20606.12, -23037.29, -21439.19, 0.000, 0.000, 0.000, 10:42:51.211, 1583739771211
160, -25098.64, -30500.68, -19515.91, -15578.47, -18513.99, -20607.30, -23147.11, -21478.13, 0.000, 0.000, 0.000, 10:42:51.211, 1583739771211
161, -25592.72, -30557.76, -19615.64, -15680.51, -19083.49, -20655.13, -23377.04, -21725.07, 0.000, 0.000, 0.000, 10:42:51.211, 1583739771211
162, -25833.03, -30576.31, -19666.85, -15732.90, -19405.16, -20669.28, -23462.56, -21864.19, 0.000, 0.000, 0.000, 10:42:51.211, 1583739771211
163, -25513.08, -30532.01, -19611.44, -15679.19, -19063.67, -20643.15, -23293.02, -21720.26, 0.000, 0.000, 0.000, 10:42:51.211, 1583739771211
164, -24956.33, -30474.21, -19502.77, -15599.19, -18460.46, -20612.64, -23042.61, -21446.59, 0.000, 0.000, 0.000, 10:42:51.211, 1583739771211
165, -25106.53, -30523.54, -19512.04, -15574.63, -18513.84, -20604.20, -23149.34, -21479.47, 0.000, 0.000, 0.000, 10:42:51.211, 1583739771211
166, -25588.75, -30569.76, -19610.53, -15661.17, -19075.47, -20644.99, -23377.06, -21719.95, 0.006, -0.022, 0.972, 10:42:51.212, 1583739771212
167, -25828.94, -30577.95, -19673.38, -15729.01, -19407.88, -20670.29, -23471.95, -21868.68, 0.000, 0.000, 0.000, 10:42:51.212, 1583739771212
168, -25510.38, -30532.66, -19616.34, -15675.03, -19069.68, -20643.82, -23302.97, -21726.36, 0.000, 0.000, 0.000, 10:42:51.212, 1583739771212
169, -24953.04, -30468.80, -19503.62, -15588.29, -18459.84, -20609.63, -23046.68, -21447.21, 0.000, 0.000, 0.000, 10:42:51.212, 1583739771212
170, -25098.86, -30506.55, -19518.50, -15579.25, -18514.08, -20612.53, -23153.52, -21485.19, 0.000, 0.000, 0.000, 10:42:51.212, 1583739771212
171, -25592.37, -30565.58, -19615.87, -15676.31, -19077.41, -20659.76, -23383.37, -21730.70, 0.000, 0.000, 0.000, 10:42:51.212, 1583739771212
172, -25830.64, -30578.13, -19682.61, -15745.28, -19415.82, -20686.09, -23481.94, -21881.78, 0.000, 0.000, 0.000, 10:42:51.212, 1583739771212
173, -25517.40, -30538.72, -19632.01, -15691.73, -19084.72, -20661.06, -23317.50, -21743.20, 0.000, 0.000, 0.000, 10:42:51.213, 1583739771213
174, -24958.72, -30473.96, -19509.05, -15600.33, -18469.40, -20622.88, -23056.43, -21461.05, 0.000, 0.000, 0.000, 10:42:51.213, 1583739771213
175, -25104.12, -30506.80, -19513.92, -15581.80, -18511.54, -20615.73, -23155.29, -21489.44, 0.000, 0.000, 0.000, 10:42:51.213, 1583739771213
176, -25597.26, -30568.00, -19614.91, -15678.94, -19074.13, -20659.58, -23384.37, -21729.92, 0.000, 0.000, 0.000, 10:42:51.213, 1583739771213
177, -25830.79, -30577.41, -19679.97, -15746.58, -19410.84, -20682.38, -23477.91, -21875.41, 0.000, -0.016, 0.978, 10:42:51.213, 1583739771213
178, -25520.60, -30535.34, -19622.71, -15688.20, -19076.30, -20652.43, -23309.87, -21733.38, 0.000, 0.000, 0.000, 10:42:51.213, 1583739771213
179, -24966.81, -30484.47, -19502.54, -15594.30, -18464.28, -20612.17, -23049.97, -21450.28, 0.000, 0.000, 0.000, 10:42:51.214, 1583739771214
180, -25112.38, -30517.75, -19514.75, -15577.09, -18512.03, -20607.30, -23152.12, -21479.04, 0.000, 0.000, 0.000, 10:42:51.214, 1583739771214
181, -25601.62, -30569.74, -19613.57, -15673.29, -19074.73, -20650.69, -23381.13, -21720.44, 0.000, 0.000, 0.000, 10:42:51.214, 1583739771214
182, -25842.06, -30582.97, -19677.94, -15742.76, -19412.33, -20675.34, -23476.75, -21871.11, 0.000, 0.000, 0.000, 10:42:51.214, 1583739771214
183, -25528.31, -30538.34, -19621.61, -15689.87, -19079.63, -20649.48, -23310.01, -21733.25, 0.000, 0.000, 0.000, 10:42:51.214, 1583739771214
184, -24958.96, -30471.35, -19504.69, -15600.69, -18466.88, -20613.22, -23049.88, -21452.91, 0.000, 0.000, 0.000, 10:42:51.215, 1583739771215
185, -25099.60, -30513.46, -19515.40, -15576.53, -18507.60, -20606.07, -23148.63, -21480.41, 0.000, 0.000, 0.000, 10:42:51.215, 1583739771215
186, -25594.00, -30558.90, -19610.64, -15667.43, -19065.28, -20648.70, -23376.01, -21722.03, 0.000, 0.000, 0.000, 10:42:51.215, 1583739771215
187, -25834.19, -30570.03, -19673.42, -15742.53, -19403.15, -20676.82, -23473.29, -21875.65, 0.006, -0.016, 0.976, 10:42:51.215, 1583739771215
188, -25520.60, -30526.76, -19615.87, -15682.09, -19074.17, -20645.75, -23303.86, -21735.48, 0.000, 0.000, 0.000, 10:42:51.215, 1583739771215
189, -24956.46, -30477.65, -19502.48, -15593.90, -18464.60, -20612.22, -23045.30, -21456.49, 0.000, 0.000, 0.000, 10:42:51.216, 1583739771216
190, -25102.77, -30521.78, -19520.02, -15585.74, -18511.67, -20615.15, -23150.53, -21490.06, 0.000, 0.000, 0.000, 10:42:51.216, 1583739771216
191, -25589.24, -30562.66, -19612.92, -15675.43, -19066.02, -20654.60, -23374.60, -21726.97, 0.000, 0.000, 0.000, 10:42:51.216, 1583739771216
192, -25828.04, -30570.12, -19669.13, -15737.80, -19399.10, -20674.18, -23466.45, -21872.57, 0.000, 0.000, 0.000, 10:42:51.216, 1583739771216
193, -25531.70, -30538.72, -19610.73, -15678.81, -19073.62, -20644.16, -23303.08, -21732.87, 0.000, 0.000, 0.000, 10:42:51.216, 1583739771216
194, -24973.92, -30487.26, -19494.23, -15588.91, -18462.56, -20608.67, -23045.34, -21449.07, 0.000, 0.000, 0.000, 10:42:51.218, 1583739771218
195, -25110.37, -30522.47, -19507.42, -15575.08, -18500.49, -20607.12, -23144.61, -21477.88, 0.000, 0.000, 0.000, 10:42:51.218, 1583739771218
196, -25594.13, -30557.22, -19600.69, -15665.29, -19055.55, -20646.69, -23370.31, -21715.75, 0.000, 0.000, 0.000, 10:42:51.218, 1583739771218
197, -25836.31, -30578.21, -19667.61, -15734.04, -19398.45, -20673.26, -23469.76, -21868.16, 0.004, -0.018, 0.972, 10:42:51.218, 1583739771218
198, -25536.24, -30545.22, -19617.83, -15682.77, -19078.60, -20648.72, -23309.70, -21734.70, 0.000, 0.000, 0.000, 10:42:51.219, 1583739771219
199, -24970.92, -30485.30, -19505.14, -15604.51, -18469.74, -20617.85, -23051.62, -21456.45, 0.000, 0.000, 0.000, 10:42:51.219, 1583739771219
200, -25097.25, -30521.98, -19513.09, -15589.40, -18503.31, -20616.15, -23149.97, -21483.83, 0.000, 0.000, 0.000, 10:42:51.219, 1583739771219
201, -25581.68, -30566.54, -19598.77, -15664.12, -19055.93, -20647.83, -23371.88, -21715.05, 0.000, 0.000, 0.000, 10:42:51.219, 1583739771219
202, -25823.55, -30569.16, -19662.22, -15722.31, -19401.27, -20669.98, -23469.38, -21864.39, 0.000, 0.000, 0.000, 10:42:51.219, 1583739771219
203, -25527.55, -30525.80, -19612.04, -15667.86, -19082.67, -20643.40, -23307.48, -21731.15, 0.000, 0.000, 0.000, 10:42:51.219, 1583739771219
204, -24969.42, -30484.18, -19502.95, -15588.04, -18471.75, -20613.54, -23050.55, -21453.23, 0.000, 0.000, 0.000, 10:42:51.220, 1583739771220
205, -25094.17, -30516.63, -19510.68, -15577.98, -18501.75, -20611.32, -23142.28, -21475.64, 0.000, 0.000, 0.000, 10:42:51.220, 1583739771220
206, -25581.84, -30558.23, -19605.81, -15671.57, -19061.03, -20656.48, -23370.11, -21716.19, 0.000, 0.000, 0.000, 10:42:51.220, 1583739771220
207, -25822.59, -30558.90, -19663.75, -15729.70, -19398.01, -20673.11, -23462.60, -21861.10, 0.000, -0.018, 0.970, 10:42:51.220, 1583739771220
208, -25519.77, -30510.51, -19608.00, -15669.09, -19076.52, -20637.41, -23298.88, -21721.45, 0.000, 0.000, 0.000, 10:42:51.220, 1583739771220
209, -24955.77, -30471.17, -19497.63, -15583.12, -18466.54, -20603.75, -23043.57, -21440.29, 0.000, 0.000, 0.000, 10:42:51.220, 1583739771220
210, -25093.61, -30519.14, -19510.88, -15572.48, -18494.88, -20604.71, -23141.56, -21468.18, 0.000, 0.000, 0.000, 10:42:51.221, 1583739771221
211, -25585.68, -30571.62, -19607.20, -15672.44, -19051.49, -20652.72, -23369.96, -21710.85, 0.000, 0.000, 0.000, 10:42:51.221, 1583739771221
212, -25829.76, -30575.53, -19671.48, -15743.70, -19397.87, -20677.98, -23467.74, -21862.84, 0.000, 0.000, 0.000, 10:42:51.221, 1583739771221
213, -25537.40, -30529.64, -19618.15, -15677.92, -19083.45, -20642.82, -23307.53, -21726.95, 0.000, 0.000, 0.000, 10:42:51.221, 1583739771221
214, -24974.70, -30476.13, -19501.40, -15590.81, -18469.04, -20606.86, -23045.25, -21444.87, 0.000, 0.000, 0.000, 10:42:51.221, 1583739771221
215, -25098.97, -30519.65, -19505.90, -15570.36, -18491.40, -20600.91, -23138.19, -21466.55, 0.000, 0.000, 0.000, 10:42:51.222, 1583739771222
216, -25588.48, -30572.25, -19593.58, -15658.09, -19039.97, -20639.94, -23360.86, -21702.47, 0.000, 0.000, 0.000, 10:42:51.222, 1583739771222
217, -25831.24, -30567.87, -19656.84, -15729.53, -19385.29, -20666.15, -23458.76, -21856.47, 0.004, -0.016, 0.972, 10:42:51.222, 1583739771222
218, -25541.56, -30534.94, -19611.15, -15678.67, -19079.11, -20643.09, -23306.28, -21731.19, 0.000, 0.000, 0.000, 10:42:51.222, 1583739771222
219, -24972.91, -30489.48, -19491.26, -15584.53, -18457.96, -20603.32, -23039.98, -21445.54, 0.000, 0.000, 0.000, 10:42:51.222, 1583739771222
220, -25094.10, -30526.49, -19500.60, -15567.01, -18476.38, -20598.52, -23130.28, -21465.59, 0.000, 0.000, 0.000, 10:42:51.223, 1583739771223
221, -25584.45, -30573.10, -19599.55, -15662.89, -19035.97, -20644.88, -23363.14, -21707.43, 0.000, 0.000, 0.000, 10:42:51.223, 1583739771223
222, -25829.36, -30575.38, -19666.16, -15741.48, -19390.54, -20676.82, -23465.62, -21864.99, 0.000, 0.000, 0.000, 10:42:51.223, 1583739771223
223, -25540.76, -30536.42, -19620.05, -15686.83, -19091.00, -20650.53, -23312.24, -21737.94, 0.000, 0.000, 0.000, 10:42:51.223, 1583739771223
224, -24975.41, -30476.51, -19509.36, -15598.10, -18476.06, -20615.77, -23049.70, -21453.61, 0.000, 0.000, 0.000, 10:42:51.223, 1583739771223
225, -25093.23, -30510.15, -19515.73, -15578.20, -18491.53, -20611.82, -23137.92, -21470.82, 0.000, 0.000, 0.000, 10:42:51.224, 1583739771224
226, -25579.67, -30557.00, -19603.42, -15660.95, -19038.48, -20649.28, -23363.83, -21704.48, 0.000, 0.000, 0.000, 10:42:51.674, 1583739771674
227, -25828.36, -30562.08, -19659.41, -15722.57, -19384.42, -20666.78, -23457.98, -21852.12, 0.002, -0.016, 0.966, 10:42:51.674, 1583739771674
228, -25541.92, -30518.27, -19613.68, -15675.26, -19084.43, -20643.33, -23307.10, -21726.41, 0.000, 0.000, 0.000, 10:42:51.674, 1583739771674
229, -24962.83, -30474.88, -19502.25, -15589.72, -18470.30, -20609.29, -23044.40, -21444.46, 0.000, 0.000, 0.000, 10:42:51.674, 1583739771674
230, -25085.83, -30520.43, -19508.94, -15572.88, -18486.28, -20606.92, -23133.07, -21464.02, 0.000, 0.000, 0.000, 10:42:51.674, 1583739771674
231, -25572.50, -30560.64, -19603.48, -15663.88, -19037.79, -20647.78, -23361.26, -21700.28, 0.000, 0.000, 0.000, 10:42:51.674, 1583739771674
232, -25818.72, -30563.75, -19659.88, -15730.60, -19383.83, -20667.67, -23453.66, -21848.83, 0.000, 0.000, 0.000, 10:42:51.674, 1583739771674
233, -25535.68, -30525.13, -19613.70, -15680.33, -19083.79, -20640.58, -23300.55, -21722.63, 0.000, 0.000, 0.000, 10:42:51.675, 1583739771675
234, -24966.65, -30457.27, -19505.23, -15598.21, -18468.87, -20608.46, -23040.22, -21442.94, 0.000, 0.000, 0.000, 10:42:51.675, 1583739771675
235, -25077.79, -30491.73, -19516.49, -15582.29, -18483.75, -20606.07, -23130.46, -21460.11, 0.000, 0.000, 0.000, 10:42:51.681, 1583739771681
236, -25564.76, -30544.51, -19611.67, -15670.76, -19037.00, -20647.91, -23360.01, -21699.45, 0.000, 0.000, 0.000, 10:42:51.682, 1583739771682
237, -25819.19, -30550.99, -19663.92, -15733.66, -19384.79, -20668.72, -23454.47, -21850.75, 0.004, -0.016, 0.976, 10:42:51.682, 1583739771682
238, -25542.03, -30526.85, -19606.21, -15669.78, -19080.39, -20634.88, -23296.82, -21721.92, 0.000, 0.000, 0.000, 10:42:51.682, 1583739771682
239, -24975.88, -30467.71, -19492.29, -15581.42, -18463.70, -20599.23, -23031.91, -21439.05, 0.000, 0.000, 0.000, 10:42:51.682, 1583739771682
240, -25076.58, -30499.49, -19503.15, -15568.15, -18475.19, -20599.39, -23120.73, -21455.95, 0.000, 0.000, 0.000, 10:42:51.682, 1583739771682
241, -25560.54, -30558.95, -19601.52, -15663.70, -19025.96, -20644.65, -23351.47, -21695.25, 0.000, 0.000, 0.000, 10:42:51.683, 1583739771683
242, -25816.29, -30568.56, -19662.38, -15731.05, -19380.15, -20668.12, -23450.87, -21848.31, 0.000, 0.000, 0.000, 10:42:51.683, 1583739771683
243, -25550.21, -30526.47, -19614.71, -15681.31, -19088.41, -20643.04, -23302.14, -21729.16, 0.000, 0.000, 0.000, 10:42:51.683, 1583739771683
244, -24980.51, -30464.09, -19490.59, -15582.61, -18463.81, -20601.20, -23032.73, -21441.63, 0.000, 0.000, 0.000, 10:42:51.683, 1583739771683
245, -25078.08, -30497.41, -19497.16, -15565.40, -18467.39, -20600.24, -23117.87, -21457.00, 0.000, 0.000, 0.000, 10:42:51.683, 1583739771683
246, -25564.49, -30554.43, -19593.92, -15659.83, -19018.58, -20646.53, -23347.87, -21697.22, 0.000, 0.000, 0.000, 10:42:51.683, 1583739771683
247, -25814.19, -30573.23, -19653.46, -15730.15, -19375.43, -20668.88, -23445.10, -21851.42, 0.006, -0.016, 0.978, 10:42:51.683, 1583739771683
248, -25543.82, -30532.10, -19601.96, -15670.45, -19080.21, -20632.83, -23291.17, -21723.19, 0.000, 0.000, 0.000, 10:42:51.683, 1583739771683
249, -24977.20, -30466.07, -19479.92, -15572.08, -18453.35, -20586.69, -23020.73, -21430.25, 0.000, 0.000, 0.000, 10:42:51.683, 1583739771683
250, -25075.62, -30492.52, -19486.63, -15556.75, -18452.19, -20583.79, -23104.21, -21443.41, 0.000, 0.000, 0.000, 10:42:51.684, 1583739771684
251, -25556.80, -30552.51, -19587.93, -15657.69, -19011.03, -20634.57, -23340.72, -21686.67, 0.000, 0.000, 0.000, 10:42:51.684, 1583739771684
252, -25807.46, -30558.75, -19649.39, -15727.78, -19371.47, -20659.67, -23440.92, -21840.74, 0.000, 0.000, 0.000, 10:42:51.684, 1583739771684
253, -25542.12, -30514.80, -19601.72, -15673.80, -19082.11, -20632.31, -23293.49, -21723.26, 0.000, 0.000, 0.000, 10:42:51.684, 1583739771684
254, -24967.59, -30459.30, -19488.53, -15580.71, -18463.79, -20596.82, -23029.47, -21439.93, 0.000, 0.000, 0.000, 10:42:51.684, 1583739771684
255, -25066.86, -30498.89, -19491.39, -15558.69, -18457.94, -20592.82, -23110.79, -21449.45, 0.000, 0.000, 0.000, 10:42:51.684, 1583739771684
0, -25559.71, -30556.82, -19591.17, -15652.84, -19012.82, -20639.78, -23345.86, -21691.74, 0.000, 0.000, 0.000, 10:42:51.684, 1583739771684
1, -25815.01, -30566.34, -19657.89, -15727.18, -19381.06, -20668.41, -23450.24, -21850.55, 0.000, -0.022, 0.976, 10:42:51.684, 1583739771684
2, -25543.66, -30520.72, -19611.17, -15676.08, -19093.71, -20640.74, -23301.49, -21730.07, 0.000, 0.000, 0.000, 10:42:51.685, 1583739771685
3, -24972.08, -30457.13, -19493.71, -15585.29, -18469.67, -20601.31, -23033.92, -21443.82, 0.000, 0.000, 0.000, 10:42:51.685, 1583739771685
4, -25067.62, -30488.14, -19495.12, -15560.08, -18462.92, -20592.44, -23113.69, -21449.47, 0.000, 0.000, 0.000, 10:42:51.685, 1583739771685
5, -25557.07, -30555.04, -19596.47, -15655.65, -19019.68, -20642.44, -23348.83, -21692.19, 0.000, 0.000, 0.000, 10:42:51.685, 1583739771685
6, -25814.52, -30578.33, -19662.85, -15734.38, -19386.14, -20672.95, -23451.47, -21854.33, 0.000, 0.000, 0.000, 10:42:51.685, 1583739771685
7, -25552.40, -30538.52, -19612.89, -15674.70, -19097.60, -20639.40, -23302.61, -21732.76, 0.000, 0.000, 0.000, 10:42:51.685, 1583739771685
8, -24978.79, -30466.37, -19486.41, -15573.89, -18468.73, -20595.48, -23029.27, -21440.84, 0.000, 0.000, 0.000, 10:42:51.685, 1583739771685
9, -25069.00, -30495.45, -19496.29, -15564.17, -18464.06, -20597.78, -23110.67, -21452.13, 0.000, 0.000, 0.000, 10:42:51.685, 1583739771685
10, -25560.29, -30547.93, -19599.28, -15666.16, -19017.71, -20650.13, -23344.38, -21696.41, 0.000, 0.000, 0.000, 10:42:51.685, 1583739771685
11, -25816.87, -30561.76, -19661.24, -15735.31, -19378.09, -20673.40, -23443.83, -21852.27, 0.000, 0.000, 0.000, 10:42:51.686, 1583739771686
12, -25552.65, -30527.77, -19612.45, -15678.12, -19096.93, -20642.10, -23299.75, -21734.12, -0.002, -0.020, 0.972, 10:42:51.686, 1583739771686
13, -24977.67, -30465.94, -19495.01, -15586.76, -18474.41, -20605.87, -23033.61, -21450.99, 0.000, 0.000, 0.000, 10:42:51.686, 1583739771686
14, -25070.10, -30490.51, -19499.06, -15568.97, -18463.90, -20603.86, -23111.77, -21458.88, 0.000, 0.000, 0.000, 10:42:51.686, 1583739771686
15, -25552.80, -30551.23, -19590.72, -15657.89, -19009.22, -20645.10, -23342.48, -21694.02, 0.000, 0.000, 0.000, 10:42:51.686, 1583739771686
16, -25812.62, -30566.61, -19657.84, -15735.96, -19378.96, -20673.02, -23449.64, -21854.60, 0.000, 0.000, 0.000, 10:42:51.687, 1583739771687
17, -25560.49, -30534.54, -19617.16, -15686.74, -19107.16, -20645.63, -23309.16, -21740.09, 0.000, 0.000, 0.000, 10:42:51.687, 1583739771687
18, -24989.07, -30476.51, -19495.79, -15587.21, -18483.24, -20603.26, -23038.08, -21448.53, 0.000, 0.000, 0.000, 10:42:51.687, 1583739771687
19, -25072.87, -30503.58, -19491.75, -15563.23, -18463.30, -20594.12, -23111.08, -21450.68, 0.000, 0.000, 0.000, 10:42:51.687, 1583739771687
20, -25558.68, -30555.10, -19588.20, -15658.00, -19011.48, -20637.63, -23341.77, -21688.66, 0.000, 0.000, 0.000, 10:42:51.687, 1583739771687
21, -25818.83, -30565.54, -19653.42, -15732.32, -19378.22, -20663.47, -23444.05, -21846.73, 0.000, 0.000, 0.000, 10:42:51.687, 1583739771687
22, -25561.77, -30525.20, -19609.23, -15680.91, -19104.42, -20635.91, -23304.24, -21732.71, 0.004, -0.020, 0.966, 10:42:51.688, 1583739771688
23, -24990.19, -30449.91, -19495.88, -15593.76, -18484.02, -20603.79, -23038.14, -21449.40, 0.000, 0.000, 0.000, 10:42:51.688, 1583739771688
24, -25072.76, -30491.31, -19501.99, -15577.29, -18467.70, -20605.02, -23113.80, -21456.38, 0.000, 0.000, 0.000, 10:42:51.688, 1583739771688
25, -25553.09, -30564.67, -19594.46, -15662.58, -19010.00, -20644.47, -23341.12, -21691.32, 0.000, 0.000, 0.000, 10:42:51.688, 1583739771688
26, -25820.42, -30581.90, -19659.01, -15735.07, -19378.11, -20672.26, -23445.50, -21852.25, 0.000, 0.000, 0.000, 10:42:51.688, 1583739771688
27, -25568.47, -30543.19, -19613.57, -15681.47, -19104.55, -20644.88, -23305.92, -21740.04, 0.000, 0.000, 0.000, 10:42:51.689, 1583739771689
28, -24990.41, -30478.79, -19503.57, -15592.46, -18489.16, -20611.08, -23042.90, -21457.27, 0.000, 0.000, 0.000, 10:42:51.689, 1583739771689
29, -25066.52, -30498.53, -19507.06, -15573.17, -18468.08, -20607.84, -23117.09, -21458.88, 0.000, 0.000, 0.000, 10:42:51.689, 1583739771689
30, -25558.01, -30548.73, -19602.23, -15665.51, -19012.77, -20651.92, -23349.44, -21695.43, 0.000, 0.000, 0.000, 10:42:51.689, 1583739771689
31, -25822.92, -30570.28, -19668.84, -15744.48, -19386.47, -20680.08, -23455.18, -21856.65, 0.000, 0.000, 0.000, 10:42:51.689, 1583739771689
32, -25573.03, -30532.91, -19624.83, -15689.96, -19118.70, -20649.97, -23316.87, -21743.93, 0.004, -0.022, 0.970, 10:42:51.689, 1583739771689
33, -24989.99, -30463.06, -19504.40, -15593.54, -18493.21, -20609.07, -23046.23, -21454.08, 0.000, 0.000, 0.000, 10:42:51.690, 1583739771690
34, -25062.83, -30494.10, -19510.14, -15574.43, -18468.33, -20607.68, -23118.68, -21455.10, 0.000, 0.000, 0.000, 10:42:51.690, 1583739771690
35, -25548.13, -30551.06, -19600.18, -15660.77, -19012.37, -20647.51, -23348.10, -21688.61, 0.000, 0.000, 0.000, 10:42:51.690, 1583739771690
36, -25812.40, -30558.05, -19662.11, -15733.55, -19383.79, -20675.38, -23452.32, -21849.23, 0.000, 0.000, 0.000, 10:42:51.690, 1583739771690
37, -25569.14, -30524.30, -19624.81, -15689.65, -19118.97, -20653.75, -23315.80, -21745.95, 0.000, 0.000, 0.000, 10:42:51.690, 1583739771690
38, -24986.59, -30462.43, -19508.06, -15594.43, -18488.89, -20611.95, -23042.61, -21457.21, 0.000, 0.000, 0.000, 10:42:51.690, 1583739771690
39, -25059.46, -30496.18, -19507.30, -15562.98, -18458.14, -20602.88, -23111.99, -21451.44, 0.000, 0.000, 0.000, 10:42:51.691, 1583739771691
40, -25552.38, -30553.00, -19595.37, -15648.14, -19000.70, -20642.57, -23342.87, -21685.21, 0.000, 0.000, 0.000, 10:42:51.691, 1583739771691
41, -25816.89, -30559.62, -19654.16, -15718.89, -19370.54, -20665.80, -23443.16, -21844.67, 0.000, 0.000, 0.000, 10:42:51.691, 1583739771691
42, -25573.01, -30529.82, -19614.48, -15675.21, -19110.56, -20642.89, -23309.74, -21741.79, 0.006, -0.020, 0.972, 10:42:51.691, 1583739771691
43, -24995.49, -30473.05, -19501.09, -15591.50, -18488.54, -20609.74, -23042.77, -21459.80, 0.000, 0.000, 0.000, 10:42:51.691, 1583739771691
44, -25064.33, -30506.46, -19502.03, -15568.91, -18456.64, -20605.36, -23116.29, -21458.72, 0.000, 0.000, 0.000, 10:42:51.691, 1583739771691
45, -25551.28, -30549.89, -19598.03, -15657.64, -19003.12, -20647.33, -23349.66, -21694.47, 0.000, 0.000, 0.000, 10:42:51.692, 1583739771692
46, -25818.43, -30566.61, -19666.61, -15738.33, -19380.24, -20677.62, -23455.63, -21857.77, 0.000, 0.000, 0.000, 10:42:51.692, 1583739771692
47, -25582.89, -30539.14, -19632.90, -15698.61, -19127.66, -20657.86, -23325.79, -21757.59, 0.000, 0.000, 0.000, 10:42:51.692, 1583739771692
48, -25003.13, -30475.19, -19518.93, -15613.36, -18504.99, -20625.59, -23057.75, -21475.76, 0.000, 0.000, 0.000, 10:42:51.692, 1583739771692
49, -25062.92, -30508.32, -19509.07, -15578.81, -18458.65, -20611.64, -23118.30, -21464.31, 0.000, 0.000, 0.000, 10:42:51.692, 1583739771692
50, -25550.05, -30560.91, -19601.34, -15663.92, -18999.47, -20652.88, -23348.56, -21698.85, 0.000, 0.000, 0.000, 10:42:51.693, 1583739771693
51, -25823.35, -30570.28, -19667.84, -15737.84, -19381.29, -20682.78, -23459.16, -21864.68, 0.000, 0.000, 0.000, 10:42:51.693, 1583739771693
52, -25591.56, -30536.30, -19633.12, -15694.99, -19132.22, -20660.41, -23330.01, -21763.96, 0.006, -0.020, 0.970, 10:42:51.693, 1583739771693
53, -25011.80, -30479.20, -19519.96, -15608.49, -18508.92, -20624.98, -23059.15, -21478.60, 0.000, 0.000, 0.000, 10:42:51.693, 1583739771693
54, -25071.04, -30513.88, -19516.02, -15582.58, -18466.38, -20617.72, -23120.96, -21469.77, 0.000, 0.000, 0.000, 10:42:51.693, 1583739771693
55, -25554.77, -30562.52, -19603.46, -15664.59, -19003.25, -20655.69, -23346.24, -21701.02, 0.000, 0.000, 0.000, 10:42:51.694, 1583739771694
56, -25821.25, -30559.37, -19668.46, -15745.64, -19382.09, -20684.97, -23452.63, -21865.46, 0.000, 0.000, 0.000, 10:42:51.694, 1583739771694
57, -25588.86, -30530.56, -19632.59, -15700.54, -19133.16, -20661.10, -23325.92, -21764.34, 0.000, 0.000, 0.000, 10:42:51.694, 1583739771694
58, -25008.56, -30471.78, -19515.55, -15605.54, -18505.43, -20621.43, -23054.71, -21475.09, 0.000, 0.000, 0.000, 10:42:51.694, 1583739771694
59, -25063.66, -30495.94, -19507.80, -15580.48, -18459.08, -20613.49, -23114.14, -21464.69, 0.000, 0.000, 0.000, 10:42:51.694, 1583739771694
60, -25548.96, -30558.57, -19600.98, -15672.95, -19000.66, -20658.62, -23344.25, -21701.02, 0.000, 0.000, 0.000, 10:42:51.695, 1583739771695
61, -25819.88, -30582.28, -19668.84, -15750.80, -19384.95, -20689.04, -23454.20, -21867.92, 0.000, 0.000, 0.000, 10:42:51.695, 1583739771695
62, -25593.93, -30545.87, -19625.08, -15692.27, -19133.85, -20656.41, -23323.53, -21762.98, 0.008, -0.022, 0.968, 10:42:51.695, 1583739771695
63, -25015.80, -30480.69, -19510.37, -15601.72, -18508.41, -20620.56, -23052.54, -21476.52, 0.000, 0.000, 0.000, 10:42:51.695, 1583739771695
64, -25071.08, -30518.69, -19512.04, -15587.46, -18460.39, -20620.76, -23114.97, -21470.73, 0.000, 0.000, 0.000, 10:42:51.695, 1583739771695
65, -25560.52, -30577.12, -19610.06, -15681.25, -19002.16, -20666.76, -23347.87, -21706.49, 0.000, 0.000, 0.000, 10:42:51.696, 1583739771696
66, -25825.43, -30577.59, -19671.08, -15750.92, -19381.82, -20688.53, -23452.48, -21863.69, 0.000, 0.000, 0.000, 10:42:51.696, 1583739771696
67, -25592.88, -30544.78, -19625.26, -15692.15, -19132.62, -20654.11, -23321.63, -21757.84, 0.000, 0.000, 0.000, 10:42:51.696, 1583739771696
68, -25006.71, -30480.11, -19506.43, -15593.29, -18503.22, -20609.98, -23046.23, -21466.59, 0.000, 0.000, 0.000, 10:42:51.696, 1583739771696
69, -25055.68, -30500.77, -19505.27, -15577.71, -18454.25, -20611.15, -23110.12, -21463.31, 0.000, 0.000, 0.000, 10:42:51.696, 1583739771696
70, -25542.84, -30555.04, -19594.77, -15667.57, -18989.30, -20653.64, -23342.06, -21697.66, 0.000, 0.000, 0.000, 10:42:51.696, 1583739771696
71, -25816.53, -30579.29, -19662.85, -15747.59, -19377.44, -20685.02, -23452.19, -21863.74, 0.000, 0.000, 0.000, 10:42:51.697, 1583739771697
72, -25587.81, -30544.42, -19632.70, -15701.67, -19143.42, -20663.27, -23331.55, -21768.12, 0.004, -0.020, 0.966, 10:42:51.697, 1583739771697
73, -25005.41, -30472.98, -19516.20, -15607.26, -18515.98, -20623.31, -23057.52, -21477.08, 0.000, 0.000, 0.000, 10:42:51.697, 1583739771697
74, -25054.81, -30507.92, -19506.88, -15576.28, -18455.07, -20611.77, -23112.35, -21457.47, 0.000, 0.000, 0.000, 10:42:51.697, 1583739771697
75, -25548.56, -30568.74, -19599.28, -15661.69, -18993.19, -20652.32, -23347.25, -21692.63, 0.000, 0.000, 0.000, 10:42:51.697, 1583739771697
76, -25814.79, -30569.96, -19664.75, -15742.40, -19380.62, -20681.85, -23456.90, -21859.45, 0.000, 0.000, 0.000, 10:42:51.697, 1583739771697
77, -25583.94, -30537.09, -19629.61, -15701.47, -19141.54, -20660.14, -23332.76, -21762.04, 0.000, 0.000, 0.000, 10:42:51.697, 1583739771697
78, -25003.20, -30487.85, -19520.27, -15612.78, -18518.67, -20627.46, -23065.79, -21477.16, 0.000, 0.000, 0.000, 10:42:51.698, 1583739771698
79, -25040.46, -30504.32, -19509.36, -15576.66, -18454.76, -20611.86, -23116.38, -21455.33, 0.000, 0.000, 0.000, 10:42:51.698, 1583739771698
80, -25531.19, -30550.18, -19596.02, -15661.22, -18986.73, -20651.36, -23343.51, -21687.16, 0.000, 0.000, 0.000, 10:42:51.698, 1583739771698
81, -25807.81, -30561.96, -19658.04, -15743.18, -19374.65, -20681.08, -23449.17, -21852.56, 0.000, 0.000, 0.000, 10:42:51.698, 1583739771698
82, -25589.24, -30534.02, -19622.75, -15703.89, -19137.83, -20658.06, -23324.09, -21759.58, 0.004, -0.020, 0.972, 10:42:51.698, 1583739771698
83, -24998.50, -30473.50, -19506.08, -15610.82, -18506.97, -20620.67, -23050.08, -21470.15, 0.000, 0.000, 0.000, 10:42:51.698, 1583739771698
84, -25041.91, -30496.72, -19502.10, -15585.11, -18448.37, -20615.42, -23105.56, -21453.34, 0.000, 0.000, 0.000, 10:42:51.698, 1583739771698
85, -25531.21, -30550.97, -19595.82, -15668.26, -18982.60, -20653.59, -23337.66, -21685.35, 0.000, 0.000, 0.000, 10:42:51.699, 1583739771699
86, -25805.13, -30566.05, -19660.33, -15742.24, -19374.25, -20678.54, -23446.85, -21849.81, 0.000, 0.000, 0.000, 10:42:51.699, 1583739771699
87, -25592.12, -30541.49, -19620.00, -15695.10, -19138.30, -20651.74, -23324.69, -21753.92, 0.000, 0.000, 0.000, 10:42:51.699, 1583739771699
88, -25006.48, -30486.84, -19504.33, -15601.29, -18507.85, -20610.63, -23052.29, -21464.83, 0.000, 0.000, 0.000, 10:42:51.699, 1583739771699
89, -25039.92, -30516.81, -19502.54, -15574.85, -18445.31, -20602.81, -23106.43, -21448.11, 0.000, 0.000, 0.000, 10:42:51.699, 1583739771699
90, -25523.12, -30562.68, -19583.39, -15649.37, -18973.63, -20635.42, -23329.63, -21674.24, 0.000, 0.000, 0.000, 10:42:52.156, 1583739772156
91, -25805.94, -30573.92, -19648.95, -15729.46, -19365.75, -20666.33, -23442.51, -21843.44, 0.000, 0.000, 0.000, 10:42:52.156, 1583739772156
92, -25601.22, -30543.37, -19626.57, -15698.99, -19144.34, -20653.01, -23329.77, -21759.29, 0.002, -0.020, 0.970, 10:42:52.156, 1583739772156
93, -25008.85, -30481.34, -19515.02, -15613.99, -18518.67, -20621.27, -23058.95, -21476.25, 0.000, 0.000, 0.000, 10:42:52.156, 1583739772156
94, -25032.61, -30492.34, -19505.81, -15581.38, -18447.95, -20610.92, -23110.94, -21456.15, 0.000, 0.000, 0.000, 10:42:52.156, 1583739772156
95, -25524.04, -30551.88, -19598.37, -15665.20, -18981.86, -20649.66, -23344.96, -21688.93, 0.000, 0.000, 0.000, 10:42:52.157, 1583739772157
96, -25808.15, -30575.35, -19668.33, -15749.06, -19381.24, -20681.20, -23457.87, -21860.03, 0.000, 0.000, 0.000, 10:42:52.159, 1583739772159
97, -25587.18, -30534.81, -19630.53, -15699.95, -19152.07, -20653.44, -23332.76, -21764.43, 0.000, 0.000, 0.000, 10:42:52.159, 1583739772159
98, -25001.01, -30469.25, -19515.11, -15606.93, -18521.57, -20617.29, -23059.24, -21477.05, 0.000, 0.000, 0.000, 10:42:52.160, 1583739772160
99, -25028.50, -30503.22, -19504.51, -15576.08, -18448.15, -20607.95, -23107.08, -21453.18, 0.000, 0.000, 0.000, 10:42:52.160, 1583739772160
100, -25520.93, -30555.91, -19596.60, -15665.80, -18981.64, -20652.25, -23340.54, -21688.25, 0.000, 0.000, 0.000, 10:42:52.160, 1583739772160
101, -25802.43, -30556.06, -19670.81, -15753.11, -19380.64, -20686.63, -23455.90, -21859.98, 0.000, 0.000, 0.000, 10:42:52.160, 1583739772160
102, -25592.68, -30533.04, -19639.72, -15713.07, -19157.39, -20662.87, -23338.89, -21770.73, 0.000, 0.000, 0.000, 10:42:52.166, 1583739772166
103, -25004.94, -30474.75, -19515.29, -15614.39, -18518.84, -20618.16, -23056.96, -21476.09, 0.008, -0.016, 0.964, 10:42:52.166, 1583739772166
104, -25023.22, -30497.99, -19507.15, -15584.31, -18442.07, -20609.85, -23104.01, -21453.14, 0.000, 0.000, 0.000, 10:42:52.166, 1583739772166
105, -25510.65, -30542.14, -19601.16, -15667.88, -18977.61, -20653.14, -23339.85, -21688.25, 0.000, 0.000, 0.000, 10:42:52.166, 1583739772166
106, -25789.15, -30554.05, -19667.70, -15749.24, -19375.30, -20684.04, -23452.54, -21858.73, 0.000, 0.000, 0.000, 10:42:52.167, 1583739772167
107, -25591.41, -30526.94, -19632.92, -15707.22, -19153.48, -20659.76, -23335.87, -21769.97, 0.000, 0.000, 0.000, 10:42:52.167, 1583739772167
108, -24999.40, -30454.29, -19514.75, -15614.64, -18521.19, -20621.50, -23057.92, -21478.75, 0.000, 0.000, 0.000, 10:42:52.167, 1583739772167
109, -25014.64, -30484.43, -19505.12, -15583.68, -18437.84, -20611.97, -23099.66, -21452.55, 0.000, 0.000, 0.000, 10:42:52.167, 1583739772167
110, -25506.96, -30546.27, -19591.26, -15663.57, -18964.56, -20650.37, -23330.26, -21684.79, 0.000, 0.000, 0.000, 10:42:52.167, 1583739772167
111, -25795.61, -30563.57, -19661.91, -15748.44, -19368.79, -20683.72, -23447.65, -21858.46, 0.000, 0.000, 0.000, 10:42:52.167, 1583739772167
112, -25587.76, -30531.41, -19628.72, -15699.55, -19148.52, -20654.02, -23329.79, -21767.27, 0.000, 0.000, 0.000, 10:42:52.167, 1583739772167
113, -25000.72, -30467.91, -19518.24, -15613.39, -18524.46, -20621.29, -23060.21, -21481.52, 0.008, -0.020, 0.968, 10:42:52.167, 1583739772167
114, -25018.29, -30491.02, -19507.04, -15586.03, -18442.63, -20613.31, -23104.19, -21454.63, 0.000, 0.000, 0.000, 10:42:52.168, 1583739772168
115, -25506.98, -30540.91, -19596.42, -15665.82, -18970.15, -20649.12, -23337.28, -21683.52, 0.000, 0.000, 0.000, 10:42:52.168, 1583739772168
116, -25793.73, -30556.04, -19657.40, -15741.53, -19367.32, -20676.06, -23449.93, -21852.45, 0.000, 0.000, 0.000, 10:42:52.168, 1583739772168
117, -25593.98, -30528.77, -19630.11, -15706.06, -19155.85, -20658.09, -23339.71, -21771.29, 0.000, 0.000, 0.000, 10:42:52.168, 1583739772168
118, -25006.10, -30473.32, -19516.74, -15617.07, -18528.99, -20621.45, -23064.41, -21483.63, 0.000, 0.000, 0.000, 10:42:52.168, 1583739772168
119, -25021.82, -30500.77, -19506.90, -15587.23, -18442.51, -20614.01, -23108.89, -21456.76, 0.000, 0.000, 0.000, 10:42:52.168, 1583739772168
120, -25508.35, -30545.07, -19601.74, -15672.64, -18975.74, -20658.40, -23348.12, -21692.95, 0.000, 0.000, 0.000, 10:42:52.168, 1583739772168
121, -25799.14, -30570.39, -19672.71, -15758.36, -19382.22, -20693.20, -23467.92, -21869.44, 0.000, 0.000, 0.000, 10:42:52.168, 1583739772168
122, -25597.80, -30538.20, -19639.96, -15717.30, -19166.42, -20669.04, -23353.08, -21783.41, 0.000, 0.000, 0.000, 10:42:52.169, 1583739772169
123, -25014.22, -30473.34, -19524.14, -15627.15, -18535.23, -20632.04, -23076.83, -21494.89, 0.004, -0.016, 0.966, 10:42:52.169, 1583739772169
124, -25027.05, -30502.38, -19514.73, -15598.66, -18448.12, -20624.60, -23118.88, -21465.52, 0.000, 0.000, 0.000, 10:42:52.169, 1583739772169
125, -25518.25, -30561.18, -19610.66, -15681.38, -18981.59, -20666.27, -23354.13, -21697.87, 0.000, 0.000, 0.000, 10:42:52.169, 1583739772169
126, -25806.16, -30575.82, -19682.07, -15765.51, -19389.60, -20699.14, -23470.13, -21872.21, 0.000, 0.000, 0.000, 10:42:52.169, 1583739772169
127, -25616.24, -30550.32, -19653.31, -15729.28, -19183.27, -20679.99, -23359.83, -21794.22, 0.000, 0.000, 0.000, 10:42:52.169, 1583739772169
128, -25023.29, -30477.43, -19531.38, -15633.86, -18547.61, -20638.79, -23078.96, -21502.02, 0.000, 0.000, 0.000, 10:42:52.169, 1583739772169
129, -25023.92, -30499.67, -19518.91, -15604.18, -18451.68, -20629.12, -23116.89, -21469.34, 0.000, 0.000, 0.000, 10:42:52.169, 1583739772169
130, -25508.35, -30554.32, -19613.05, -15691.73, -18980.18, -20670.00, -23352.56, -21700.53, 0.000, 0.000, 0.000, 10:42:52.169, 1583739772169
131, -25805.15, -30570.37, -19676.82, -15764.60, -19382.52, -20694.94, -23465.35, -21869.55, 0.000, 0.000, 0.000, 10:42:52.170, 1583739772170
132, -25609.94, -30546.52, -19641.30, -15719.47, -19171.45, -20668.23, -23350.64, -21786.07, 0.000, 0.000, 0.000, 10:42:52.170, 1583739772170
133, -25019.69, -30480.69, -19522.73, -15624.36, -18535.83, -20626.39, -23071.00, -21493.97, 0.004, -0.016, 0.970, 10:42:52.170, 1583739772170
134, -25021.68, -30494.86, -19509.94, -15589.74, -18438.04, -20612.33, -23104.30, -21455.55, 0.000, 0.000, 0.000, 10:42:52.170, 1583739772170
135, -25508.53, -30548.71, -19597.36, -15665.53, -18960.52, -20647.91, -23334.75, -21681.71, 0.000, 0.000, 0.000, 10:42:52.170, 1583739772170
136, -25796.28, -30554.99, -19667.01, -15743.83, -19368.41, -20676.84, -23453.28, -21854.51, 0.000, 0.000, 0.000, 10:42:52.170, 1583739772170
137, -25611.28, -30538.36, -19639.61, -15703.69, -19166.20, -20653.82, -23345.44, -21774.89, 0.000, 0.000, 0.000, 10:42:52.170, 1583739772170
138, -25027.49, -30473.61, -19526.46, -15619.82, -18539.43, -20621.07, -23069.82, -21487.78, 0.000, 0.000, 0.000, 10:42:52.170, 1583739772170
139, -25019.56, -30484.76, -19515.38, -15594.34, -18442.18, -20614.50, -23106.38, -21452.47, 0.000, 0.000, 0.000, 10:42:52.171, 1583739772171
140, -25507.74, -30538.14, -19607.02, -15675.70, -18967.80, -20655.13, -23343.65, -21683.27, 0.000, 0.000, 0.000, 10:42:52.171, 1583739772171
141, -25792.66, -30553.72, -19671.41, -15753.44, -19374.56, -20684.44, -23459.68, -21856.32, 0.000, 0.000, 0.000, 10:42:52.171, 1583739772171
142, -25604.06, -30534.20, -19641.84, -15721.01, -19177.39, -20667.81, -23354.46, -21783.03, 0.000, 0.000, 0.000, 10:42:52.171, 1583739772171
143, -25024.70, -30478.81, -19528.18, -15634.96, -18549.13, -20635.06, -23080.57, -21500.14, 0.006, -0.016, 0.970, 10:42:52.171, 1583739772171
144, -25017.84, -30503.45, -19508.47, -15595.24, -18436.17, -20620.00, -23111.05, -21459.06, 0.000, 0.000, 0.000, 10:42:52.171, 1583739772171
145, -25505.20, -30556.49, -19601.79, -15673.47, -18961.50, -20657.46, -23344.99, -21688.37, 0.000, 0.000, 0.000, 10:42:52.171, 1583739772171
146, -25799.52, -30559.35, -19671.75, -15759.14, -19371.96, -20689.91, -23460.10, -21865.12, 0.000, 0.000, 0.000, 10:42:52.171, 1583739772171
147, -25618.59, -30540.13, -19646.11, -15730.20, -19177.88, -20674.74, -23357.04, -21793.89, 0.000, 0.000, 0.000, 10:42:52.171, 1583739772171
148, -25032.05, -30487.71, -19531.33, -15641.66, -18546.81, -20639.35, -23081.80, -21507.43, 0.000, 0.000, 0.000, 10:42:52.172, 1583739772172
149, -25031.34, -30517.75, -19521.97, -15610.14, -18441.84, -20632.04, -23116.64, -21473.48, 0.000, 0.000, 0.000, 10:42:52.172, 1583739772172
150, -25514.69, -30555.41, -19608.29, -15682.72, -18960.18, -20664.77, -23345.41, -21697.53, 0.000, 0.000, 0.000, 10:42:52.172, 1583739772172
151, -25810.72, -30560.22, -19679.79, -15766.32, -19375.68, -20698.12, -23465.40, -21874.91, 0.000, 0.000, 0.000, 10:42:52.172, 1583739772172
152, -25620.46, -30540.33, -19646.33, -15722.31, -19177.77, -20670.20, -23355.02, -21793.91, 0.000, 0.000, 0.000, 10:42:52.172, 1583739772172
153, -25033.89, -30493.12, -19527.60, -15630.15, -18546.38, -20631.22, -23074.46, -21502.62, 0.004, -0.016, 0.972, 10:42:52.172, 1583739772172
154, -25022.62, -30516.19, -19515.17, -15599.17, -18437.39, -20622.46, -23106.88, -21462.50, 0.000, 0.000, 0.000, 10:42:52.172, 1583739772172
155, -25514.18, -30566.32, -19607.84, -15683.77, -18961.23, -20664.10, -23345.26, -21693.19, 0.000, 0.000, 0.000, 10:42:52.172, 1583739772172
156, -25812.42, -30584.38, -19679.91, -15773.04, -19377.75, -20700.84, -23468.21, -21873.80, 0.000, 0.000, 0.000, 10:42:52.173, 1583739772173
157, -25628.44, -30552.46, -19651.85, -15732.19, -19185.44, -20677.69, -23363.21, -21798.00, 0.000, 0.000, 0.000, 10:42:52.173, 1583739772173
158, -25041.53, -30485.32, -19531.87, -15629.32, -18549.58, -20632.94, -23082.11, -21505.17, 0.000, 0.000, 0.000, 10:42:52.173, 1583739772173
159, -25022.93, -30509.84, -19512.96, -15593.83, -18434.18, -20620.33, -23111.41, -21463.46, 0.000, 0.000, 0.000, 10:42:52.173, 1583739772173
160, -25511.88, -30563.46, -19601.83, -15677.89, -18952.87, -20660.48, -23346.15, -21693.37, 0.000, 0.000, 0.000, 10:42:52.173, 1583739772173
161, -25807.01, -30568.40, -19664.10, -15755.45, -19361.77, -20685.38, -23458.02, -21864.07, 0.000, 0.000, 0.000, 10:42:52.173, 1583739772173
162, -25624.64, -30541.69, -19632.97, -15713.72, -19172.07, -20658.20, -23350.02, -21784.39, 0.000, 0.000, 0.000, 10:42:52.173, 1583739772173
163, -25038.00, -30490.26, -19521.99, -15629.48, -18544.39, -20627.46, -23076.88, -21501.57, 0.002, -0.020, 0.966, 10:42:52.173, 1583739772173
164, -25022.38, -30509.44, -19511.44, -15602.66, -18429.01, -20623.08, -23108.71, -21464.51, 0.000, 0.000, 0.000, 10:42:52.174, 1583739772174
165, -25505.78, -30570.70, -19604.24, -15688.00, -18951.75, -20664.57, -23343.63, -21696.55, 0.000, 0.000, 0.000, 10:42:52.174, 1583739772174
166, -25799.16, -30582.91, -19675.32, -15777.65, -19373.91, -20699.77, -23463.83, -21876.37, 0.000, 0.000, 0.000, 10:42:52.174, 1583739772174
167, -25630.10, -30544.17, -19645.57, -15730.53, -19185.71, -20672.55, -23358.78, -21800.48, 0.000, 0.000, 0.000, 10:42:52.174, 1583739772174
168, -25039.47, -30479.82, -19526.24, -15632.45, -18549.20, -20629.34, -23078.15, -21506.42, 0.000, 0.000, 0.000, 10:42:52.174, 1583739772174
169, -25018.51, -30516.32, -19514.01, -15603.48, -18431.52, -20623.11, -23108.57, -21462.05, 0.000, 0.000, 0.000, 10:42:52.174, 1583739772174
170, -25513.11, -30561.61, -19608.09, -15686.52, -18954.73, -20664.32, -23346.98, -21693.31, 0.000, 0.000, 0.000, 10:42:52.175, 1583739772175
171, -25809.58, -30572.51, -19670.72, -15761.85, -19367.61, -20689.69, -23463.12, -21867.65, 0.000, 0.000, 0.000, 10:42:52.175, 1583739772175
172, -25632.94, -30553.04, -19643.38, -15724.09, -19184.43, -20666.96, -23359.94, -21795.12, 0.000, 0.000, 0.000, 10:42:52.175, 1583739772175
173, -25044.30, -30489.43, -19526.30, -15632.05, -18551.66, -20629.68, -23080.52, -21506.76, -0.002, -0.018, 0.970, 10:42:52.175, 1583739772175
174, -25020.52, -30512.25, -19510.26, -15601.11, -18429.39, -20620.76, -23106.00, -21462.79, 0.000, 0.000, 0.000, 10:42:52.175, 1583739772175
175, -25512.35, -30574.53, -19599.51, -15677.71, -18946.79, -20657.35, -23341.26, -21689.62, 0.000, 0.000, 0.000, 10:42:52.177, 1583739772177
176, -25816.71, -30582.64, -19673.31, -15763.05, -19371.65, -20691.50, -23463.83, -21871.27, 0.000, 0.000, 0.000, 10:42:52.178, 1583739772178
177, -25645.45, -30563.60, -19647.16, -15725.93, -19192.59, -20669.17, -23361.19, -21799.61, 0.000, 0.000, 0.000, 10:42:52.178, 1583739772178
178, -25051.72, -30491.96, -19527.85, -15633.59, -18557.00, -20629.41, -23078.47, -21506.45, 0.000, 0.000, 0.000, 10:42:52.178, 1583739772178
179, -25020.30, -30512.07, -19513.03, -15603.42, -18429.62, -20620.40, -23101.69, -21459.39, 0.000, 0.000, 0.000, 10:42:52.178, 1583739772178
180, -25518.52, -30581.59, -19606.59, -15686.36, -18947.42, -20662.91, -23340.38, -21690.87, 0.000, 0.000, 0.000, 10:42:52.178, 1583739772178
181, -25819.37, -30582.75, -19676.69, -15774.32, -19371.41, -20696.69, -23460.66, -21870.69, 0.000, 0.000, 0.000, 10:42:52.179, 1583739772179
182, -25646.70, -30550.59, -19650.69, -15733.82, -19193.89, -20673.84, -23363.74, -21801.18, 0.000, 0.000, 0.000, 10:42:52.179, 1583739772179
183, -25059.37, -30488.58, -19534.69, -15642.82, -18563.28, -20636.27, -23086.22, -21511.97, 0.000, -0.020, 0.976, 10:42:52.179, 1583739772179
184, -25025.84, -30506.62, -19516.80, -15610.79, -18429.28, -20626.50, -23103.68, -21463.08, 0.000, 0.000, 0.000, 10:42:52.179, 1583739772179
185, -25510.58, -30574.53, -19605.70, -15687.93, -18943.66, -20665.75, -23340.12, -21692.08, 0.000, 0.000, 0.000, 10:42:52.179, 1583739772179
186, -25812.73, -30587.62, -19672.53, -15771.73, -19365.69, -20697.71, -23460.66, -21871.85, 0.000, 0.000, 0.000, 10:42:52.179, 1583739772179
187, -25644.36, -30557.72, -19653.17, -15747.61, -19195.39, -20681.24, -23363.94, -21807.17, 0.000, 0.000, 0.000, 10:42:52.180, 1583739772180
188, -25056.84, -30487.69, -19536.34, -15653.46, -18562.70, -20640.09, -23082.78, -21515.77, 0.000, 0.000, 0.000, 10:42:52.180, 1583739772180
189, -25018.98, -30512.03, -19510.55, -15604.22, -18419.16, -20618.86, -23094.80, -21456.04, 0.000, 0.000, 0.000, 10:42:52.180, 1583739772180
190, -25508.14, -30570.64, -19601.56, -15686.43, -18935.71, -20660.16, -23332.47, -21685.35, 0.000, 0.000, 0.000, 10:42:52.180, 1583739772180
191, -25809.31, -30579.49, -19669.18, -15764.15, -19359.27, -20688.82, -23454.89, -21863.40, 0.000, 0.000, 0.000, 10:42:52.180, 1583739772180
192, -25643.04, -30546.56, -19642.38, -15718.66, -19184.17, -20659.09, -23353.86, -21789.66, 0.000, 0.000, 0.000, 10:42:52.180, 1583739772180
193, -25049.87, -30488.43, -19526.95, -15631.87, -18555.70, -20623.48, -23074.64, -21502.24, 0.000, 0.000, 0.000, 10:42:52.181, 1583739772181
194, -25016.99, -30504.79, -19509.92, -15604.00, -18420.90, -20621.41, -23100.39, -21457.03, -0.002, -0.024, 0.972, 10:42:52.181, 1583739772181
195, -25505.93, -30560.96, -19601.83, -15685.25, -18937.96, -20663.03, -23340.05, -21687.43, 0.000, 0.000, 0.000, 10:42:52.181, 1583739772181
196, -25808.53, -30581.59, -19675.41, -15774.39, -19368.50, -20698.12, -23465.55, -21871.63, 0.000, 0.000, 0.000, 10:42:52.181, 1583739772181
197, -25646.95, -30552.93, -19654.69, -15741.86, -19203.41, -20678.69, -23371.52, -21810.07, 0.000, 0.000, 0.000, 10:42:52.181, 1583739772181
198, -25056.37, -30497.66, -19538.44, -15647.70, -18569.07, -20638.64, -23089.40, -21519.52, 0.000, 0.000, 0.000, 10:42:52.182, 1583739772182
199, -25015.56, -30516.86, -19518.71, -15615.00, -18425.64, -20631.06, -23107.37, -21467.91, 0.000, 0.000, 0.000, 10:42:52.182, 1583739772182
200, -25505.71, -30563.75, -19609.12, -15690.79, -18938.99, -20669.44, -23345.81, -21694.36, 0.000, 0.000, 0.000, 10:42:52.182, 1583739772182
201, -25815.68, -30581.70, -19680.51, -15772.66, -19368.19, -20700.87, -23470.98, -21876.52, 0.000, 0.000, 0.000, 10:42:52.182, 1583739772182
202, -25650.59, -30545.49, -19658.63, -15739.27, -19202.88, -20679.83, -23374.43, -21814.27, 0.000, 0.000, 0.000, 10:42:52.183, 1583739772183
203, -25048.53, -30480.00, -19543.38, -15649.77, -18570.61, -20641.08, -23094.54, -21524.66, 0.000, 0.000, 0.000, 10:42:52.183, 1583739772183
204, -25012.96, -30514.18, -19525.54, -15616.16, -18426.04, -20630.90, -23110.67, -21468.45, 0.008, -0.026, 0.970, 10:42:52.183, 1583739772183
205, -25492.92, -30576.78, -19605.47, -15684.46, -18929.33, -20659.81, -23338.71, -21685.15, 0.000, 0.000, 0.000, 10:42:52.183, 1583739772183
206, -25813.72, -30579.82, -19674.50, -15771.70, -19359.74, -20693.54, -23464.10, -21868.03, 0.000, 0.000, 0.000, 10:42:52.183, 1583739772183
207, -25651.96, -30548.82, -19652.68, -15737.39, -19196.97, -20670.87, -23368.66, -21802.94, 0.000, 0.000, 0.000, 10:42:52.183, 1583739772183
208, -25061.54, -30494.44, -19540.12, -15647.54, -18567.64, -20633.86, -23088.26, -21515.16, 0.000, 0.000, 0.000, 10:42:52.184, 1583739772184
209, -24981.22, -30506.02, -19516.80, -15606.55, -18416.12, -20619.82, -23099.52, -21454.90, 0.000, 0.000, 0.000, 10:42:52.184, 1583739772184
210, -25498.47, -30567.19, -19603.22, -15677.78, -18923.97, -20655.22, -23332.43, -21678.78, 0.000, 0.000, 0.000, 10:42:52.184, 1583739772184
211, -25831.17, -30575.69, -19673.51, -15767.55, -19356.12, -20690.07, -23456.34, -21864.01, 0.000, 0.000, 0.000, 10:42:52.635, 1583739772635
212, -25669.35, -30536.86, -19648.46, -15732.36, -19194.36, -20665.80, -23361.37, -21800.04, 0.000, 0.000, 0.000, 10:42:52.636, 1583739772636
213, -25072.26, -30472.13, -19534.40, -15643.96, -18563.88, -20629.92, -23081.35, -21511.83, 0.000, 0.000, 0.000, 10:42:52.636, 1583739772636
214, -25009.41, -30490.59, -19513.88, -15612.09, -18412.56, -20621.76, -23093.06, -21455.69, 0.004, -0.022, 0.970, 10:42:52.636, 1583739772636
215, -25497.97, -30555.66, -19605.41, -15690.03, -18923.34, -20662.60, -23333.03, -21685.35, 0.000, 0.000, 0.000, 10:42:52.636, 1583739772636
216, -25811.50, -30575.89, -19674.16, -15771.08, -19356.65, -20693.63, -23459.63, -21869.84, 0.000, 0.000, 0.000, 10:42:52.636, 1583739772636
217, -25652.80, -30544.28, -19652.41, -15738.73, -19198.83, -20672.10, -23366.83, -21808.66, 0.000, 0.000, 0.000, 10:42:52.637, 1583739772637
218, -25061.42, -30482.10, -19540.54, -15650.36, -18569.94, -20637.16, -23087.12, -21520.59, 0.000, 0.000, 0.000, 10:42:52.637, 1583739772637
219, -25014.44, -30502.46, -19523.29, -15616.87, -18418.53, -20629.36, -23099.34, -21461.85, 0.000, 0.000, 0.000, 10:42:52.637, 1583739772637
220, -25499.03, -30559.17, -19615.96, -15688.73, -18930.61, -20663.74, -23338.93, -21685.30, 0.000, 0.000, 0.000, 10:42:52.637, 1583739772637
221, -25804.89, -30556.94, -19681.54, -15767.23, -19362.13, -20690.16, -23460.93, -21865.19, 0.000, 0.000, 0.000, 10:42:52.637, 1583739772637
222, -25659.67, -30534.76, -19659.16, -15739.18, -19209.07, -20672.95, -23370.67, -21810.70, 0.000, 0.000, 0.000, 10:42:52.637, 1583739772637
223, -25067.66, -30482.08, -19540.14, -15652.39, -18574.50, -20636.43, -23087.25, -21524.80, 0.000, 0.000, 0.000, 10:42:52.637, 1583739772637
224, -24997.77, -30502.24, -19510.26, -15609.07, -18409.16, -20621.41, -23091.27, -21459.30, 0.002, -0.018, 0.970, 10:42:52.642, 1583739772642
225, -25487.16, -30558.14, -19599.62, -15683.93, -18917.20, -20660.77, -23330.82, -21686.58, 0.000, 0.000, 0.000, 10:42:52.643, 1583739772643
226, -25795.19, -30566.28, -19676.15, -15775.79, -19360.07, -20699.03, -23462.00, -21874.89, 0.000, 0.000, 0.000, 10:42:52.645, 1583739772645
227, -25654.93, -30541.91, -19664.64, -15751.18, -19217.13, -20685.58, -23380.75, -21823.59, 0.000, 0.000, 0.000, 10:42:52.645, 1583739772645
228, -25062.85, -30482.39, -19548.30, -15659.72, -18585.27, -20646.91, -23099.23, -21534.50, 0.000, 0.000, 0.000, 10:42:52.645, 1583739772645
229, -24994.81, -30496.03, -19519.62, -15619.20, -18418.55, -20631.11, -23099.39, -21465.29, 0.000, 0.000, 0.000, 10:42:52.645, 1583739772645
230, -25475.53, -30547.32, -19612.47, -15696.74, -18923.41, -20669.82, -23336.65, -21690.29, 0.000, 0.000, 0.000, 10:42:52.646, 1583739772646
231, -25788.06, -30553.58, -19681.56, -15777.56, -19361.39, -20699.44, -23463.83, -21872.84, 0.000, 0.000, 0.000, 10:42:52.646, 1583739772646
232, -25644.54, -30523.59, -19652.79, -15733.59, -19208.84, -20669.51, -23371.30, -21809.96, 0.000, 0.000, 0.000, 10:42:52.646, 1583739772646
233, -25060.69, -30460.38, -19536.63, -15636.18, -18575.13, -20627.84, -23089.51, -21518.58, 0.000, 0.000, 0.000, 10:42:52.646, 1583739772646
234, -24990.48, -30481.45, -19511.08, -15598.37, -18405.23, -20614.61, -23093.24, -21451.04, -0.002, -0.018, 0.974, 10:42:52.646, 1583739772646
235, -25472.63, -30545.63, -19597.94, -15671.90, -18907.74, -20650.22, -23329.39, -21673.28, 0.000, 0.000, 0.000, 10:42:52.646, 1583739772646
236, -25786.45, -30562.46, -19671.37, -15765.13, -19350.84, -20686.79, -23458.80, -21861.93, 0.000, 0.000, 0.000, 10:42:52.647, 1583739772647
237, -25647.93, -30537.56, -19657.40, -15743.23, -19213.11, -20672.93, -23377.04, -21813.13, 0.000, 0.000, 0.000, 10:42:52.647, 1583739772647
238, -25056.77, -30468.38, -19545.24, -15657.69, -18586.28, -20638.64, -23096.77, -21525.27, 0.000, 0.000, 0.000, 10:42:52.647, 1583739772647
239, -24984.15, -30480.16, -19523.24, -15623.56, -18416.59, -20627.62, -23097.31, -21456.31, 0.000, 0.000, 0.000, 10:42:52.647, 1583739772647
240, -25465.77, -30538.52, -19609.43, -15688.89, -18918.27, -20657.73, -23331.69, -21674.98, 0.000, 0.000, 0.000, 10:42:52.647, 1583739772647
241, -25782.02, -30547.95, -19672.75, -15761.69, -19353.12, -20682.11, -23456.12, -21855.76, 0.000, 0.000, 0.000, 10:42:52.647, 1583739772647
242, -25639.48, -30526.87, -19659.68, -15739.18, -19214.21, -20668.30, -23374.98, -21807.46, 0.000, 0.000, 0.000, 10:42:52.648, 1583739772648
243, -25059.63, -30470.52, -19545.84, -15651.96, -18588.54, -20633.07, -23093.73, -21522.45, 0.000, 0.000, 0.000, 10:42:52.648, 1583739772648
244, -24980.17, -30478.84, -19505.12, -15598.25, -18404.69, -20609.92, -23083.03, -21445.13, 0.002, -0.016, 0.972, 10:42:52.648, 1583739772648
245, -25467.42, -30546.52, -19594.77, -15677.31, -18910.89, -20653.21, -23325.86, -21674.40, 0.000, 0.000, 0.000, 10:42:52.648, 1583739772648
246, -25786.87, -30559.21, -19671.70, -15773.60, -19358.49, -20693.76, -23460.19, -21867.34, 0.000, 0.000, 0.000, 10:42:52.648, 1583739772648
247, -25652.94, -30532.19, -19659.86, -15748.97, -19225.85, -20678.56, -23379.05, -21819.75, 0.000, 0.000, 0.000, 10:42:52.648, 1583739772648
248, -25068.31, -30478.81, -19546.82, -15659.18, -18596.58, -20643.00, -23097.93, -21534.47, 0.000, 0.000, 0.000, 10:42:52.649, 1583739772649
249, -24989.00, -30488.09, -19517.79, -15614.73, -18412.61, -20626.39, -23095.50, -21461.61, 0.000, 0.000, 0.000, 10:42:52.649, 1583739772649
250, -25464.98, -30543.81, -19604.02, -15683.93, -18913.80, -20660.37, -23334.01, -21684.14, 0.000, 0.000, 0.000, 10:42:52.649, 1583739772649
251, -25784.32, -30551.55, -19673.98, -15777.74, -19358.91, -20698.09, -23464.21, -21874.22, 0.000, 0.000, 0.000, 10:42:52.649, 1583739772649
252, -25664.18, -30537.22, -19660.26, -15750.47, -19229.03, -20681.31, -23385.89, -21829.07, 0.000, 0.000, 0.000, 10:42:52.649, 1583739772649
253, -25075.24, -30478.46, -19548.14, -15657.75, -18600.50, -20644.79, -23105.24, -21542.41, 0.000, 0.000, 0.000, 10:42:52.649, 1583739772649
254, -24996.65, -30492.34, -19523.38, -15621.92, -18417.30, -20634.84, -23103.39, -21472.52, 0.002, -0.014, 0.970, 10:42:52.649, 1583739772649
255, -25475.62, -30536.84, -19607.40, -15691.42, -18913.02, -20667.21, -23337.03, -21691.38, 0.000, 0.000, 0.000, 10:42:52.649, 1583739772649
0, -25793.53, -30558.72, -19679.64, -15784.22, -19363.52, -20703.32, -23467.36, -21882.29, 0.000, 0.000, 0.000, 10:42:52.650, 1583739772650
1, -25668.38, -30549.94, -19666.94, -15760.48, -19233.05, -20686.54, -23390.29, -21836.65, 0.000, 0.000, 0.000, 10:42:52.664, 1583739772664
2, -25081.70, -30494.30, -19547.29, -15659.79, -18596.03, -20641.23, -23104.15, -21541.98, 0.000, 0.000, 0.000, 10:42:52.664, 1583739772664
3, -24993.07, -30502.91, -19509.41, -15602.92, -18402.21, -20617.29, -23090.33, -21456.27, 0.000, 0.000, 0.000, 10:42:52.664, 1583739772664
4, -25470.24, -30551.57, -19597.32, -15673.40, -18898.82, -20650.98, -23324.98, -21674.02, 0.000, 0.000, 0.000, 10:42:52.664, 1583739772664
5, -25790.94, -30565.99, -19676.69, -15773.67, -19353.95, -20692.82, -23462.31, -21866.85, 0.000, 0.000, 0.000, 10:42:52.664, 1583739772664
6, -25667.98, -30530.29, -19661.33, -15748.59, -19225.85, -20674.20, -23382.65, -21820.20, 0.000, 0.000, 0.000, 10:42:52.665, 1583739772665
7, -25081.54, -30471.55, -19546.67, -15657.91, -18594.86, -20637.10, -23097.53, -21532.46, 0.000, 0.000, 0.000, 10:42:52.665, 1583739772665
8, -24989.72, -30491.47, -19516.58, -15619.13, -18406.55, -20625.18, -23088.32, -21458.48, 0.000, -0.018, 0.974, 10:42:52.665, 1583739772665
9, -25472.29, -30554.36, -19603.80, -15685.85, -18904.68, -20661.21, -23328.80, -21682.58, 0.000, 0.000, 0.000, 10:42:52.665, 1583739772665
10, -25802.23, -30570.99, -19681.56, -15780.20, -19358.24, -20700.75, -23463.74, -21875.67, 0.000, 0.000, 0.000, 10:42:52.665, 1583739772665
11, -25680.95, -30544.17, -19666.34, -15755.34, -19234.73, -20682.58, -23386.56, -21830.26, 0.000, 0.000, 0.000, 10:42:52.665, 1583739772665
12, -25086.64, -30470.90, -19548.10, -15662.20, -18603.67, -20642.30, -23101.47, -21539.17, 0.000, 0.000, 0.000, 10:42:52.665, 1583739772665
13, -24991.53, -30489.48, -19513.05, -15616.36, -18404.67, -20625.23, -23086.98, -21456.60, 0.000, 0.000, 0.000, 10:42:52.666, 1583739772666
14, -25474.55, -30546.74, -19599.80, -15686.52, -18899.43, -20659.27, -23326.59, -21676.99, 0.000, 0.000, 0.000, 10:42:52.666, 1583739772666
15, -25794.38, -30557.54, -19671.12, -15769.78, -19351.96, -20690.21, -23461.15, -21865.64, 0.000, 0.000, 0.000, 10:42:52.666, 1583739772666
16, -25669.08, -30538.58, -19655.16, -15739.14, -19229.41, -20668.52, -23381.13, -21819.41, 0.000, 0.000, 0.000, 10:42:52.666, 1583739772666
17, -25083.60, -30473.16, -19544.43, -15654.76, -18603.58, -20635.93, -23100.88, -21535.53, 0.000, 0.000, 0.000, 10:42:52.666, 1583739772666
18, -24991.91, -30489.07, -19514.66, -15613.52, -18408.00, -20623.84, -23090.65, -21455.64, 0.002, -0.018, 0.972, 10:42:52.666, 1583739772666
19, -25469.19, -30550.12, -19605.63, -15686.45, -18905.89, -20663.20, -23330.68, -21679.20, 0.000, 0.000, 0.000, 10:42:52.666, 1583739772666
20, -25796.64, -30557.96, -19682.59, -15777.81, -19359.61, -20699.57, -23463.50, -21871.72, 0.000, 0.000, 0.000, 10:42:52.667, 1583739772667
21, -25679.72, -30549.60, -19662.85, -15747.21, -19234.59, -20677.98, -23383.23, -21827.37, 0.000, 0.000, 0.000, 10:42:52.667, 1583739772667
22, -25094.88, -30489.52, -19538.53, -15653.40, -18598.60, -20636.49, -23096.21, -21537.04, 0.000, 0.000, 0.000, 10:42:52.667, 1583739772667
23, -24993.29, -30498.04, -19507.42, -15609.32, -18397.61, -20619.19, -23079.49, -21451.84, 0.000, 0.000, 0.000, 10:42:52.667, 1583739772667
24, -25469.90, -30546.65, -19591.10, -15676.08, -18887.02, -20650.33, -23312.64, -21667.24, 0.000, 0.000, 0.000, 10:42:52.668, 1583739772668
25, -25796.86, -30561.25, -19667.90, -15774.27, -19346.51, -20692.39, -23451.27, -21864.41, 0.000, 0.000, 0.000, 10:42:52.668, 1583739772668
26, -25679.96, -30550.03, -19660.75, -15753.84, -19236.27, -20680.26, -23383.90, -21828.96, 0.000, 0.000, 0.000, 10:42:52.668, 1583739772668
27, -25088.65, -30491.44, -19545.19, -15654.45, -18607.18, -20636.96, -23100.84, -21538.10, 0.000, 0.000, 0.000, 10:42:52.669, 1583739772669
28, -24984.13, -30497.55, -19515.29, -15613.90, -18407.49, -20625.56, -23086.71, -21456.94, 0.000, 0.000, 0.000, 10:42:52.669, 1583739772669
29, -25466.21, -30547.93, -19603.02, -15684.24, -18898.94, -20660.97, -23323.57, -21675.92, 0.002, -0.020, 0.974, 10:42:52.669, 1583739772669
30, -25802.00, -30575.42, -19677.69, -15774.32, -19355.52, -20695.88, -23457.87, -21867.98, 0.000, 0.000, 0.000, 10:42:52.669, 1583739772669
31, -25694.31, -30568.45, -19667.95, -15753.64, -19245.32, -20681.78, -23388.93, -21831.33, 0.000, 0.000, 0.000, 10:42:52.669, 1583739772669
32, -25101.19, -30497.57, -19553.60, -15667.10, -18617.15, -20644.41, -23107.66, -21545.49, 0.000, 0.000, 0.000, 10:42:52.669, 1583739772669
33, -24985.45, -30491.29, -19517.70, -15619.76, -18405.74, -20625.79, -23088.55, -21455.46, 0.000, 0.000, 0.000, 10:42:52.669, 1583739772669
34, -25453.74, -30543.50, -19603.73, -15683.93, -18893.04, -20657.46, -23323.73, -21670.28, 0.000, 0.000, 0.000, 10:42:52.669, 1583739772669
35, -25782.29, -30559.44, -19674.59, -15769.76, -19346.87, -20690.43, -23454.73, -21861.32, 0.000, 0.000, 0.000, 10:42:52.669, 1583739772669
36, -25681.17, -30548.35, -19660.35, -15750.78, -19238.35, -20676.39, -23383.99, -21825.27, 0.000, 0.000, 0.000, 10:42:52.669, 1583739772669
37, -25089.63, -30479.29, -19546.09, -15662.05, -18610.42, -20638.35, -23103.46, -21538.21, 0.000, 0.000, 0.000, 10:42:52.670, 1583739772670
38, -24976.04, -30497.14, -19516.13, -15619.31, -18399.87, -20624.24, -23086.71, -21453.16, 0.000, 0.000, 0.000, 10:42:52.670, 1583739772670
39, -25454.52, -30558.07, -19603.22, -15686.77, -18888.30, -20658.91, -23323.40, -21670.84, 0.006, -0.018, 0.972, 10:42:52.670, 1583739772670
40, -25786.78, -30567.89, -19673.04, -15776.29, -19345.14, -20693.11, -23455.12, -21862.82, 0.000, 0.000, 0.000, 10:42:52.670, 1583739772670
41, -25676.99, -30544.98, -19654.58, -15740.19, -19235.71, -20669.24, -23381.51, -21821.38, 0.000, 0.000, 0.000, 10:42:52.670, 1583739772670
42, -25090.44, -30481.90, -19536.14, -15639.81, -18603.24, -20626.08, -23096.66, -21531.79, 0.000, 0.000, 0.000, 10:42:52.670, 1583739772670
43, -24973.29, -30493.79, -19503.04, -15597.92, -18385.56, -20610.10, -23073.01, -21440.71, 0.000, 0.000, 0.000, 10:42:52.670, 1583739772670
44, -25441.65, -30548.91, -19591.21, -15675.10, -18874.24, -20648.27, -23309.67, -21661.10, 0.000, 0.000, 0.000, 10:42:52.670, 1583739772670
45, -25778.33, -30572.74, -19668.89, -15773.94, -19339.00, -20689.51, -23450.20, -21861.79, 0.000, 0.000, 0.000, 10:42:52.670, 1583739772670
46, -25687.90, -30560.22, -19656.53, -15742.38, -19232.04, -20668.43, -23381.80, -21824.85, 0.000, 0.000, 0.000, 10:42:52.670, 1583739772670
47, -25101.37, -30489.77, -19542.35, -15649.77, -18603.67, -20630.86, -23100.39, -21539.28, 0.000, 0.000, 0.000, 10:42:52.671, 1583739772671
48, -24980.89, -30489.68, -19511.48, -15607.71, -18391.93, -20617.94, -23079.65, -21449.76, 0.000, 0.000, 0.000, 10:42:52.671, 1583739772671
49, -25453.21, -30552.17, -19600.74, -15681.69, -18879.76, -20654.11, -23318.12, -21668.43, 0.006, -0.014, 0.970, 10:42:52.671, 1583739772671
50, -25788.57, -30569.96, -19671.48, -15774.90, -19338.66, -20690.09, -23453.37, -21864.19, 0.000, 0.000, 0.000, 10:42:52.671, 1583739772671
51, -25694.69, -30551.53, -19658.76, -15748.79, -19236.36, -20672.14, -23385.36, -21829.74, 0.000, 0.000, 0.000, 10:42:52.671, 1583739772671
52, -25101.99, -30482.53, -19543.52, -15653.06, -18608.52, -20630.99, -23101.33, -21539.95, 0.000, 0.000, 0.000, 10:42:52.671, 1583739772671
53, -24968.62, -30498.33, -19512.60, -15615.51, -18394.30, -20621.54, -23079.81, -21450.72, 0.000, 0.000, 0.000, 10:42:52.671, 1583739772671
54, -25452.29, -30575.44, -19603.84, -15693.96, -18884.25, -20663.90, -23320.94, -21674.87, 0.000, 0.000, 0.000, 10:42:52.671, 1583739772671
55, -25785.64, -30580.83, -19672.98, -15780.58, -19342.53, -20696.96, -23455.18, -21867.63, 0.000, 0.000, 0.000, 10:42:52.671, 1583739772671
56, -25687.74, -30557.29, -19665.02, -15754.78, -19244.16, -20677.44, -23389.24, -21833.56, 0.000, 0.000, 0.000, 10:42:52.671, 1583739772671
57, -25101.92, -30487.13, -19553.91, -15663.77, -18620.19, -20638.88, -23108.39, -21547.64, 0.000, 0.000, 0.000, 10:42:52.671, 1583739772671
58, -24968.89, -30492.67, -19516.69, -15615.58, -18397.54, -20620.40, -23078.89, -21450.05, 0.000, 0.000, 0.000, 10:42:52.672, 1583739772672
59, -25440.78, -30547.75, -19607.22, -15689.23, -18881.32, -20658.11, -23317.47, -21668.05, 0.000, -0.016, 0.970, 10:42:52.672, 1583739772672
60, -25778.62, -30560.58, -19681.43, -15781.94, -19346.22, -20694.96, -23456.43, -21865.01, 0.000, 0.000, 0.000, 10:42:52.672, 1583739772672
61, -25680.12, -30543.01, -19666.23, -15749.89, -19247.89, -20670.91, -23387.32, -21828.78, 0.000, 0.000, 0.000, 10:42:52.672, 1583739772672
62, -25086.90, -30475.75, -19554.06, -15658.54, -18622.53, -20632.02, -23106.03, -21543.19, 0.000, 0.000, 0.000, 10:42:52.672, 1583739772672
63, -24959.50, -30479.13, -19521.32, -15618.59, -18397.25, -20620.27, -23081.39, -21452.27, 0.000, 0.000, 0.000, 10:42:52.672, 1583739772672
64, -25442.12, -30558.66, -19606.95, -15691.57, -18879.06, -20660.41, -23320.07, -21672.52, 0.000, 0.000, 0.000, 10:42:52.672, 1583739772672
65, -25779.36, -30577.43, -19679.97, -15786.63, -19341.68, -20700.08, -23458.20, -21868.63, 0.000, 0.000, 0.000, 10:42:52.672, 1583739772672
66, -25687.83, -30563.48, -19665.82, -15754.89, -19245.16, -20676.62, -23389.04, -21834.03, 0.000, 0.000, 0.000, 10:42:52.672, 1583739772672
67, -25096.67, -30489.14, -19548.54, -15658.85, -18616.03, -20632.76, -23100.28, -21543.93, 0.000, 0.000, 0.000, 10:42:52.672, 1583739772672
68, -24965.20, -30485.25, -19511.69, -15614.21, -18387.75, -20619.15, -23070.96, -21448.20, 0.000, 0.000, 0.000, 10:42:52.672, 1583739772672
69, -25440.46, -30545.51, -19597.83, -15681.47, -18866.28, -20653.30, -23310.66, -21662.51, 0.004, -0.018, 0.972, 10:42:52.672, 1583739772672
70, -25780.75, -30560.40, -19676.15, -15778.41, -19337.66, -20691.77, -23453.28, -21861.30, 0.000, 0.000, 0.000, 10:42:52.673, 1583739772673
71, -25701.71, -30544.71, -19672.13, -15762.18, -19257.23, -20680.86, -23395.17, -21839.35, 0.000, 0.000, 0.000, 10:42:52.673, 1583739772673
72, -25108.47, -30486.41, -19559.94, -15669.47, -18632.30, -20643.33, -23111.61, -21555.75, 0.000, 0.000, 0.000, 10:42:52.673, 1583739772673
73, -24965.76, -30501.50, -19519.98, -15620.23, -18396.83, -20625.12, -23079.29, -21455.84, 0.000, 0.000, 0.000, 10:42:52.673, 1583739772673
74, -25443.06, -30560.85, -19609.23, -15690.23, -18876.94, -20661.50, -23322.46, -21672.56, 0.000, 0.000, 0.000, 10:42:52.673, 1583739772673
75, -25789.53, -30581.50, -19689.34, -15787.62, -19349.79, -20701.71, -23467.97, -21872.50, 0.000, 0.000, 0.000, 10:42:53.116, 1583739773116
76, -25700.30, -30565.92, -19674.27, -15763.83, -19260.65, -20683.63, -23403.39, -21842.64, 0.000, 0.000, 0.000, 10:42:53.116, 1583739773116
77, -25117.37, -30491.04, -19559.99, -15672.64, -18636.64, -20644.67, -23120.71, -21557.21, 0.000, 0.000, 0.000, 10:42:53.116, 1583739773116
