%OpenBCI Raw EEG Data
%Number of channels = 8
%Sample Rate = 250.0 Hz
%First Column = SampleIndex
%Last Column = Timestamp 
%Other Columns = EEG data in microvolts followed by Accel Data (in G) interleaved with Aux Data
0, 0.00, 0.00, 0.00, 0.00, 0.00, 0.00, 0.00, 0.00, 0.000, 0.000, 0.000, 10:31:22.128, 1583739082128
1, -29443.46, -34222.51, -23580.84, -18978.49, -23981.43, -23548.61, -26531.72, -25992.55, 0.006, -0.024, 0.968, 10:31:22.610, 1583739082610
2, -30082.68, -34282.70, -23760.37, -19166.91, -24798.81, -23667.75, -26885.37, -26424.83, 0.000, 0.000, 0.000, 10:31:22.610, 1583739082610
3, -30380.69, -34296.05, -23864.60, -19265.06, -25237.62, -23720.43, -27017.63, -26673.14, 0.000, 0.000, 0.000, 10:31:22.610, 1583739082610
4, -29905.40, -34242.40, -23750.96, -19149.57, -24692.78, -23649.87, -26728.15, -26392.38, 0.000, 0.000, 0.000, 10:31:22.611, 1583739082611
5, -29249.38, -34184.87, -23572.08, -19009.13, -23883.11, -23572.64, -26393.01, -25952.36, 0.000, 0.000, 0.000, 10:31:22.611, 1583739082611
6, -29438.07, -34227.02, -23590.05, -18977.61, -23992.79, -23556.44, -26541.18, -25998.92, 0.000, 0.000, 0.000, 10:31:22.611, 1583739082611
7, -30073.94, -34279.59, -23762.09, -19150.48, -24801.25, -23664.82, -26889.26, -26420.28, 0.000, 0.000, 0.000, 10:31:22.611, 1583739082611
8, -30373.31, -34290.01, -23863.12, -19252.25, -25242.67, -23715.89, -27017.20, -26666.55, 0.010, -0.020, 0.972, 10:31:22.611, 1583739082611
9, -29904.38, -34234.96, -23747.07, -19134.28, -24702.68, -23639.29, -26725.02, -26384.80, 0.000, 0.000, 0.000, 10:31:22.612, 1583739082612
10, -29252.00, -34178.92, -23574.79, -18998.33, -23888.96, -23563.32, -26389.25, -25946.44, 0.000, 0.000, 0.000, 10:31:22.616, 1583739082616
11, -29440.46, -34224.68, -23585.58, -18975.27, -23986.15, -23550.00, -26532.32, -25992.15, 0.000, 0.000, 0.000, 10:31:22.616, 1583739082616
12, -30075.08, -34281.05, -23748.79, -19154.93, -24786.88, -23659.03, -26876.16, -26410.66, 0.000, 0.000, 0.000, 10:31:22.616, 1583739082616
13, -30377.67, -34293.48, -23849.38, -19259.02, -25230.02, -23713.12, -27007.61, -26660.69, 0.000, 0.000, 0.000, 10:31:22.617, 1583739082617
14, -29915.22, -34238.25, -23742.16, -19148.27, -24697.18, -23643.36, -26724.06, -26387.71, 0.000, 0.000, 0.000, 10:31:22.617, 1583739082617
15, -29257.02, -34176.62, -23561.51, -19001.75, -23876.63, -23560.30, -26383.73, -25944.03, 0.000, 0.000, 0.000, 10:31:22.617, 1583739082617
16, -29443.66, -34224.70, -23579.73, -18978.40, -23972.54, -23548.63, -26530.29, -25990.47, 0.000, 0.000, 0.000, 10:31:22.617, 1583739082617
17, -30076.19, -34282.01, -23751.03, -19153.92, -24774.81, -23657.51, -26878.31, -26410.87, 0.000, 0.000, 0.000, 10:31:22.618, 1583739082618
18, -30376.18, -34294.55, -23842.16, -19243.42, -25215.38, -23700.96, -27003.99, -26655.48, 0.006, -0.016, 0.970, 10:31:22.618, 1583739082618
19, -29918.19, -34237.39, -23728.70, -19128.11, -24685.02, -23628.68, -26718.31, -26382.19, 0.000, 0.000, 0.000, 10:31:22.618, 1583739082618
20, -29260.13, -34177.65, -23556.53, -18992.21, -23871.86, -23553.02, -26381.36, -25941.41, 0.000, 0.000, 0.000, 10:31:22.618, 1583739082618
21, -29436.78, -34225.19, -23570.96, -18970.21, -23963.55, -23540.68, -26521.28, -25983.21, 0.000, 0.000, 0.000, 10:31:22.619, 1583739082619
22, -30072.06, -34286.03, -23739.50, -19148.29, -24764.08, -23653.76, -26869.05, -26405.10, 0.000, 0.000, 0.000, 10:31:22.619, 1583739082619
23, -30380.51, -34297.39, -23842.18, -19249.95, -25218.06, -23708.65, -27006.40, -26658.90, 0.000, 0.000, 0.000, 10:31:22.619, 1583739082619
24, -29925.47, -34239.68, -23737.75, -19140.45, -24702.52, -23638.58, -26727.07, -26391.22, 0.000, 0.000, 0.000, 10:31:22.619, 1583739082619
25, -29264.47, -34176.60, -23569.85, -19006.16, -23886.79, -23564.13, -26389.68, -25950.78, 0.000, 0.000, 0.000, 10:31:22.620, 1583739082620
26, -29439.59, -34229.55, -23593.43, -18989.33, -23976.96, -23558.07, -26532.46, -25994.65, 0.000, 0.000, 0.000, 10:31:22.620, 1583739082620
27, -30074.29, -34291.02, -23772.38, -19171.76, -24785.71, -23674.52, -26884.14, -26417.55, 0.000, 0.000, 0.000, 10:31:22.620, 1583739082620
28, -30392.00, -34308.94, -23880.60, -19279.27, -25251.68, -23732.41, -27025.45, -26677.28, -0.002, -0.018, 0.974, 10:31:22.621, 1583739082621
29, -29934.77, -34247.03, -23751.54, -19150.62, -24719.84, -23647.29, -26733.02, -26400.38, 0.000, 0.000, 0.000, 10:31:22.621, 1583739082621
30, -29265.99, -34181.34, -23556.05, -18988.03, -23884.74, -23553.26, -26380.73, -25944.94, 0.000, 0.000, 0.000, 10:31:22.621, 1583739082621
31, -29429.45, -34217.84, -23566.14, -18961.30, -23959.10, -23539.05, -26516.46, -25979.01, 0.000, 0.000, 0.000, 10:31:22.622, 1583739082622
32, -30062.78, -34276.02, -23737.64, -19146.82, -24759.14, -23655.10, -26867.11, -26401.68, 0.000, 0.000, 0.000, 10:31:22.622, 1583739082622
33, -30376.06, -34293.52, -23844.79, -19253.55, -25224.52, -23711.31, -27006.54, -26660.40, 0.000, 0.000, 0.000, 10:31:22.623, 1583739082623
34, -29932.70, -34242.80, -23740.57, -19143.87, -24714.68, -23644.05, -26730.92, -26400.92, 0.000, 0.000, 0.000, 10:31:22.626, 1583739082626
35, -29268.60, -34177.54, -23556.70, -18999.21, -23885.41, -23562.22, -26382.97, -25953.64, 0.000, 0.000, 0.000, 10:31:22.627, 1583739082627
36, -29429.00, -34221.73, -23563.63, -18967.82, -23952.33, -23542.73, -26513.19, -25980.21, 0.000, 0.000, 0.000, 10:31:22.628, 1583739082628
37, -30064.59, -34281.63, -23734.56, -19144.69, -24749.95, -23651.83, -26860.74, -26398.37, 0.000, 0.000, 0.000, 10:31:22.628, 1583739082628
38, -30385.27, -34295.38, -23840.62, -19249.37, -25215.47, -23706.55, -27001.49, -26657.61, 0.000, -0.014, 0.976, 10:31:22.629, 1583739082629
39, -29943.13, -34240.79, -23735.67, -19139.04, -24709.70, -23636.05, -26727.30, -26396.72, 0.000, 0.000, 0.000, 10:31:22.629, 1583739082629
40, -29272.85, -34178.41, -23556.82, -19001.98, -23883.87, -23558.89, -26381.03, -25950.29, 0.000, 0.000, 0.000, 10:31:22.629, 1583739082629
41, -29427.17, -34221.55, -23568.39, -18969.95, -23948.55, -23541.68, -26512.05, -25976.39, 0.000, 0.000, 0.000, 10:31:22.631, 1583739082631
42, -30059.54, -34273.05, -23737.69, -19140.25, -24746.71, -23650.29, -26861.63, -26392.43, 0.000, 0.000, 0.000, 10:31:22.631, 1583739082631
43, -30381.54, -34285.27, -23840.35, -19247.78, -25220.54, -23708.81, -27004.24, -26655.48, 0.000, 0.000, 0.000, 10:31:22.631, 1583739082631
44, -29946.20, -34241.84, -23742.25, -19145.05, -24723.80, -23643.41, -26733.40, -26402.73, 0.000, 0.000, 0.000, 10:31:22.631, 1583739082631
45, -29274.88, -34182.66, -23569.56, -19010.65, -23899.98, -23567.61, -26389.61, -25957.13, 0.000, 0.000, 0.000, 10:31:22.632, 1583739082632
46, -29425.15, -34225.04, -23580.96, -18975.00, -23962.34, -23548.21, -26520.54, -25978.81, 0.000, 0.000, 0.000, 10:31:22.632, 1583739082632
47, -30053.69, -34280.24, -23744.66, -19140.74, -24755.83, -23652.06, -26866.46, -26390.37, 0.000, 0.000, 0.000, 10:31:22.632, 1583739082632
48, -30372.91, -34288.51, -23847.90, -19251.24, -25225.62, -23710.37, -27008.26, -26654.70, 0.002, -0.016, 0.978, 10:31:22.632, 1583739082632
49, -29938.98, -34235.59, -23733.53, -19138.64, -24723.31, -23636.34, -26733.96, -26398.95, 0.000, 0.000, 0.000, 10:31:22.632, 1583739082632
50, -29273.23, -34180.71, -23559.03, -19000.03, -23895.24, -23560.17, -26392.40, -25954.87, 0.000, 0.000, 0.000, 10:31:22.633, 1583739082633
51, -29417.96, -34223.74, -23563.83, -18963.64, -23944.91, -23538.11, -26515.02, -25972.37, 0.000, 0.000, 0.000, 10:31:22.633, 1583739082633
52, -30048.30, -34282.41, -23736.84, -19143.53, -24739.04, -23651.07, -26861.61, -26388.47, 0.000, 0.000, 0.000, 10:31:22.633, 1583739082633
53, -30372.35, -34296.88, -23852.37, -19262.62, -25217.75, -23716.41, -27006.94, -26657.00, 0.000, 0.000, 0.000, 10:31:22.633, 1583739082633
54, -29947.94, -34247.21, -23752.10, -19152.83, -24730.46, -23647.77, -26740.42, -26409.97, 0.000, 0.000, 0.000, 10:31:22.633, 1583739082633
55, -29272.98, -34176.46, -23562.22, -18999.99, -23894.62, -23560.53, -26386.08, -25955.98, 0.000, 0.000, 0.000, 10:31:22.634, 1583739082634
56, -29413.20, -34219.31, -23563.52, -18959.24, -23937.87, -23536.32, -26506.44, -25971.74, 0.000, 0.000, 0.000, 10:31:22.634, 1583739082634
57, -30038.73, -34276.55, -23722.17, -19126.88, -24724.07, -23642.42, -26849.90, -26382.86, 0.000, 0.000, 0.000, 10:31:22.635, 1583739082635
58, -30365.00, -34284.20, -23825.26, -19243.53, -25202.35, -23704.90, -26992.88, -26649.74, 0.004, -0.014, 0.980, 10:31:22.635, 1583739082635
59, -29944.47, -34235.99, -23720.74, -19134.52, -24716.07, -23632.19, -26724.97, -26399.44, 0.000, 0.000, 0.000, 10:31:22.635, 1583739082635
60, -29274.21, -34179.57, -23545.95, -18992.90, -23887.69, -23554.60, -26380.18, -25953.17, 0.000, 0.000, 0.000, 10:31:22.635, 1583739082635
61, -29418.63, -34226.27, -23555.65, -18961.12, -23934.72, -23538.31, -26506.46, -25972.75, 0.000, 0.000, 0.000, 10:31:22.635, 1583739082635
62, -30047.63, -34281.83, -23726.40, -19139.62, -24725.28, -23652.30, -26855.08, -26386.43, 0.000, 0.000, 0.000, 10:31:22.635, 1583739082635
63, -30375.62, -34295.42, -23841.89, -19260.34, -25211.16, -23718.51, -27004.53, -26656.33, 0.000, 0.000, 0.000, 10:31:22.636, 1583739082636
64, -29960.81, -34247.16, -23753.47, -19161.95, -24744.23, -23654.78, -26750.21, -26417.91, 0.000, 0.000, 0.000, 10:31:22.636, 1583739082636
65, -29286.62, -34186.07, -23577.56, -19013.98, -23917.15, -23571.97, -26404.92, -25969.96, 0.000, 0.000, 0.000, 10:31:22.636, 1583739082636
66, -29416.35, -34226.91, -23572.69, -18964.49, -23948.11, -23542.98, -26518.49, -25978.52, 0.000, 0.000, 0.000, 10:31:22.636, 1583739082636
67, -30034.82, -34278.75, -23730.78, -19140.02, -24725.30, -23651.72, -26855.51, -26384.58, 0.000, 0.000, 0.000, 10:31:22.636, 1583739082636
68, -30360.55, -34294.86, -23843.70, -19254.62, -25208.34, -23714.28, -27004.19, -26651.91, 0.000, 0.000, 0.000, 10:31:22.636, 1583739082636
69, -29950.02, -34244.41, -23748.88, -19145.54, -24736.79, -23643.16, -26747.68, -26412.68, 0.004, -0.012, 0.972, 10:31:22.636, 1583739082636
70, -29273.95, -34172.73, -23564.59, -18988.48, -23901.05, -23551.67, -26391.91, -25958.55, 0.000, 0.000, 0.000, 10:31:22.637, 1583739082637
71, -29410.80, -34212.85, -23572.13, -18953.07, -23942.61, -23534.64, -26513.13, -25975.86, 0.000, 0.000, 0.000, 10:31:22.637, 1583739082637
72, -30026.30, -34275.10, -23733.48, -19130.57, -24720.96, -23648.12, -26850.84, -26381.65, 0.000, 0.000, 0.000, 10:31:22.637, 1583739082637
73, -30349.80, -34288.78, -23837.55, -19255.94, -25198.86, -23715.45, -26995.23, -26649.67, 0.000, 0.000, 0.000, 10:31:22.637, 1583739082637
74, -29948.88, -34242.22, -23742.80, -19147.93, -24737.59, -23645.44, -26745.78, -26416.50, 0.000, 0.000, 0.000, 10:31:22.637, 1583739082637
75, -29279.96, -34180.58, -23565.98, -19001.71, -23912.61, -23565.46, -26400.31, -25973.22, 0.000, 0.000, 0.000, 10:31:22.637, 1583739082637
76, -29416.12, -34227.94, -23572.10, -18964.94, -23948.26, -23547.83, -26522.18, -25988.73, 0.000, 0.000, 0.000, 10:31:22.637, 1583739082637
77, -30029.25, -34284.60, -23733.95, -19137.81, -24721.39, -23657.02, -26859.76, -26388.02, 0.000, 0.000, 0.000, 10:31:22.638, 1583739082638
78, -30348.46, -34288.87, -23840.86, -19259.63, -25200.50, -23720.38, -27001.35, -26651.68, 0.000, 0.000, 0.000, 10:31:22.638, 1583739082638
79, -29955.99, -34244.50, -23752.13, -19159.54, -24748.79, -23654.38, -26752.09, -26425.95, 0.006, -0.018, 0.978, 10:31:22.638, 1583739082638
80, -29290.78, -34186.21, -23574.09, -19011.70, -23920.70, -23572.55, -26404.09, -25983.10, 0.000, 0.000, 0.000, 10:31:22.638, 1583739082638
81, -29420.91, -34232.68, -23576.44, -18963.00, -23946.52, -23545.19, -26521.53, -25990.09, 0.000, 0.000, 0.000, 10:31:22.638, 1583739082638
82, -30030.95, -34287.82, -23735.16, -19134.25, -24712.60, -23652.41, -26852.87, -26384.09, 0.000, 0.000, 0.000, 10:31:22.639, 1583739082639
83, -30356.89, -34300.41, -23843.97, -19261.44, -25195.76, -23720.10, -26994.80, -26648.78, 0.000, 0.000, 0.000, 10:31:22.639, 1583739082639
84, -29972.21, -34255.59, -23752.33, -19160.83, -24748.99, -23650.74, -26750.23, -26424.99, 0.000, 0.000, 0.000, 10:31:22.639, 1583739082639
85, -29298.96, -34192.49, -23564.82, -18998.47, -23915.36, -23556.79, -26397.10, -25974.36, 0.000, 0.000, 0.000, 10:31:22.639, 1583739082639
86, -29427.05, -34236.88, -23563.90, -18949.07, -23936.17, -23529.39, -26511.92, -25980.15, 0.000, 0.000, 0.000, 10:31:22.639, 1583739082639
87, -30029.72, -34284.63, -23723.18, -19124.82, -24700.76, -23641.93, -26844.31, -26374.86, 0.000, 0.000, 0.000, 10:31:22.639, 1583739082639
88, -30350.96, -34293.83, -23832.93, -19254.28, -25186.59, -23714.78, -26989.06, -26642.36, 0.000, 0.000, 0.000, 10:31:22.640, 1583739082640
89, -29968.97, -34249.51, -23753.67, -19158.78, -24754.85, -23652.57, -26754.12, -26426.69, 0.008, -0.020, 0.974, 10:31:22.640, 1583739082640
90, -29301.77, -34188.91, -23589.67, -19015.70, -23937.76, -23573.71, -26414.82, -25987.25, 0.000, 0.000, 0.000, 10:31:22.640, 1583739082640
91, -29427.70, -34233.57, -23587.37, -18966.82, -23955.73, -23547.14, -26526.20, -25991.21, 0.000, 0.000, 0.000, 10:31:22.640, 1583739082640
92, -30030.66, -34289.39, -23741.22, -19135.51, -24717.12, -23657.18, -26856.83, -26382.81, 0.000, 0.000, 0.000, 10:31:22.640, 1583739082640
93, -30353.02, -34301.93, -23854.27, -19267.63, -25205.50, -23731.23, -27005.42, -26651.84, 0.000, 0.000, 0.000, 10:31:22.640, 1583739082640
94, -29983.01, -34264.30, -23770.79, -19169.77, -24774.49, -23665.56, -26768.13, -26437.93, 0.000, 0.000, 0.000, 10:31:22.641, 1583739082641
95, -29312.28, -34196.87, -23582.90, -19009.82, -23939.54, -23570.90, -26412.85, -25986.83, 0.000, 0.000, 0.000, 10:31:22.641, 1583739082641
96, -29430.92, -34236.37, -23581.13, -18958.84, -23953.27, -23543.36, -26524.77, -25987.97, 0.000, 0.000, 0.000, 10:31:22.641, 1583739082641
97, -30030.82, -34289.68, -23740.17, -19138.64, -24711.91, -23660.46, -26857.99, -26381.85, 0.000, 0.000, 0.000, 10:31:22.641, 1583739082641
98, -30359.39, -34306.08, -23851.39, -19275.70, -25205.57, -23739.21, -27009.69, -26656.94, 0.000, 0.000, 0.000, 10:31:22.641, 1583739082641
99, -29988.04, -34263.59, -23766.63, -19169.57, -24782.03, -23669.31, -26776.92, -26443.77, 0.004, -0.022, 0.972, 10:31:22.642, 1583739082642
100, -29318.65, -34198.44, -23586.72, -19013.91, -23952.73, -23580.29, -26427.45, -25996.02, 0.000, 0.000, 0.000, 10:31:22.642, 1583739082642
101, -29431.55, -34234.96, -23585.58, -18970.89, -23960.85, -23555.59, -26535.77, -25998.36, 0.000, 0.000, 0.000, 10:31:22.642, 1583739082642
102, -30026.06, -34290.39, -23750.94, -19151.35, -24718.17, -23672.55, -26864.34, -26390.39, 0.000, 0.000, 0.000, 10:31:22.642, 1583739082642
103, -30348.68, -34303.15, -23859.19, -19279.21, -25206.64, -23742.94, -27008.42, -26656.06, 0.000, 0.000, 0.000, 10:31:22.642, 1583739082642
104, -29985.96, -34262.74, -23770.41, -19169.79, -24785.92, -23668.84, -26776.32, -26443.72, 0.000, 0.000, 0.000, 10:31:22.643, 1583739082643
105, -29319.36, -34203.04, -23585.16, -19012.86, -23949.92, -23577.13, -26424.21, -25995.95, 0.000, 0.000, 0.000, 10:31:22.643, 1583739082643
106, -29431.72, -34247.88, -23573.71, -18955.71, -23945.78, -23542.00, -26522.74, -25988.15, 0.000, 0.000, 0.000, 10:31:22.643, 1583739082643
107, -30028.16, -34297.99, -23728.77, -19124.08, -24695.97, -23649.04, -26848.67, -26372.00, 0.000, 0.000, 0.000, 10:31:22.643, 1583739082643
108, -30346.56, -34300.89, -23836.03, -19256.23, -25183.20, -23720.50, -26992.17, -26636.82, 0.000, 0.000, 0.000, 10:31:22.644, 1583739082644
109, -29989.67, -34261.27, -23755.34, -19161.14, -24771.21, -23656.26, -26765.54, -26435.12, 0.008, -0.020, 0.964, 10:31:22.644, 1583739082644
110, -29324.17, -34206.04, -23582.45, -19010.70, -23947.50, -23572.91, -26419.07, -25993.67, 0.000, 0.000, 0.000, 10:31:22.644, 1583739082644
111, -29432.55, -34250.67, -23580.40, -18958.35, -23946.79, -23544.39, -26524.23, -25987.05, 0.000, 0.000, 0.000, 10:31:22.644, 1583739082644
112, -30018.95, -34298.44, -23728.41, -19128.71, -24688.71, -23650.87, -26844.20, -26366.70, 0.000, 0.000, 0.000, 10:31:22.644, 1583739082644
113, -30343.92, -34302.68, -23835.45, -19262.93, -25182.19, -23724.34, -26989.98, -26635.30, 0.000, 0.000, 0.000, 10:31:22.645, 1583739082645
114, -29993.31, -34262.16, -23754.23, -19159.83, -24772.68, -23654.09, -26762.05, -26430.96, 0.000, 0.000, 0.000, 10:31:22.645, 1583739082645
115, -29326.36, -34202.46, -23578.09, -19004.66, -23945.22, -23565.53, -26413.28, -25986.99, 0.000, 0.000, 0.000, 10:31:22.645, 1583739082645
116, -29427.68, -34244.68, -23573.91, -18952.58, -23941.06, -23534.87, -26514.94, -25978.36, 0.000, 0.000, 0.000, 10:31:22.645, 1583739082645
117, -30014.97, -34300.34, -23720.21, -19121.07, -24680.82, -23643.36, -26834.74, -26356.82, 0.000, 0.000, 0.000, 10:31:22.645, 1583739082645
118, -30345.06, -34314.15, -23837.08, -19263.98, -25178.32, -23724.50, -26987.79, -26629.91, 0.000, 0.000, 0.000, 10:31:22.646, 1583739082646
119, -30001.54, -34269.16, -23768.38, -19169.91, -24781.09, -23660.26, -26768.13, -26435.47, 0.006, -0.020, 0.966, 10:31:22.646, 1583739082646
120, -29333.71, -34205.86, -23588.11, -19015.41, -23953.38, -23570.45, -26414.22, -25989.89, 0.000, 0.000, 0.000, 10:31:22.646, 1583739082646
121, -29431.97, -34248.50, -23577.36, -18964.20, -23939.59, -23540.99, -26512.99, -25978.65, 0.000, 0.000, 0.000, 10:31:23.091, 1583739083091
122, -30019.00, -34301.16, -23732.97, -19142.01, -24687.08, -23656.68, -26839.35, -26362.63, 0.000, 0.000, 0.000, 10:31:23.091, 1583739083091
123, -30340.48, -34301.86, -23839.30, -19269.15, -25183.64, -23726.89, -26983.34, -26626.83, 0.000, 0.000, 0.000, 10:31:23.092, 1583739083092
124, -29996.76, -34257.45, -23757.94, -19154.88, -24786.34, -23648.75, -26761.74, -26424.21, 0.000, 0.000, 0.000, 10:31:23.092, 1583739083092
125, -29328.30, -34198.86, -23574.12, -18994.53, -23948.82, -23554.83, -26406.42, -25975.95, 0.000, 0.000, 0.000, 10:31:23.092, 1583739083092
126, -29425.76, -34242.04, -23565.91, -18942.59, -23929.46, -23525.59, -26502.37, -25964.25, 0.000, 0.000, 0.000, 10:31:23.092, 1583739083092
127, -30006.46, -34285.61, -23703.33, -19103.95, -24660.61, -23628.01, -26818.11, -26336.54, 0.000, 0.000, 0.000, 10:31:23.092, 1583739083092
128, -30331.14, -34295.33, -23818.67, -19244.54, -25161.11, -23703.67, -26968.50, -26607.09, 0.000, 0.000, 0.000, 10:31:23.093, 1583739083093
129, -29997.65, -34260.02, -23749.46, -19153.32, -24777.60, -23640.17, -26755.64, -26421.57, 0.006, -0.022, 0.974, 10:31:23.093, 1583739083093
130, -29327.57, -34197.77, -23575.81, -19004.26, -23953.92, -23555.50, -26405.75, -25979.95, 0.000, 0.000, 0.000, 10:31:23.093, 1583739083093
131, -29419.54, -34235.45, -23560.24, -18944.02, -23923.94, -23522.17, -26498.35, -25962.06, 0.000, 0.000, 0.000, 10:31:23.093, 1583739083093
132, -30007.75, -34287.46, -23715.92, -19116.64, -24665.78, -23633.95, -26824.91, -26342.80, 0.000, 0.000, 0.000, 10:31:23.098, 1583739083098
133, -30342.69, -34298.55, -23831.79, -19260.81, -25176.40, -23716.09, -26982.44, -26619.74, 0.000, 0.000, 0.000, 10:31:23.099, 1583739083099
134, -30009.05, -34259.32, -23749.76, -19157.03, -24792.26, -23648.26, -26768.25, -26432.21, 0.000, 0.000, 0.000, 10:31:23.099, 1583739083099
135, -29337.92, -34196.13, -23563.68, -19005.71, -23955.08, -23561.06, -26414.35, -25990.70, 0.000, 0.000, 0.000, 10:31:23.099, 1583739083099
136, -29423.48, -34239.21, -23563.41, -18956.00, -23928.55, -23532.94, -26512.32, -25972.99, 0.000, 0.000, 0.000, 10:31:23.099, 1583739083099
137, -30006.23, -34292.00, -23717.59, -19118.12, -24665.75, -23639.14, -26838.23, -26348.50, 0.000, 0.000, 0.000, 10:31:23.100, 1583739083100
138, -30336.77, -34300.89, -23824.46, -19248.38, -25170.46, -23712.50, -26987.14, -26618.78, 0.000, 0.000, 0.000, 10:31:23.100, 1583739083100
139, -30006.52, -34261.31, -23740.08, -19144.09, -24787.90, -23640.23, -26768.58, -26429.01, 0.002, -0.020, 0.968, 10:31:23.100, 1583739083100
140, -29334.65, -34200.11, -23566.87, -18994.04, -23957.43, -23554.85, -26416.01, -25986.96, 0.000, 0.000, 0.000, 10:31:23.100, 1583739083100
141, -29415.50, -34238.38, -23568.73, -18944.85, -23927.25, -23529.26, -26512.32, -25970.40, 0.000, 0.000, 0.000, 10:31:23.100, 1583739083100
142, -29992.38, -34281.03, -23720.34, -19114.76, -24662.56, -23637.33, -26831.95, -26344.08, 0.000, 0.000, 0.000, 10:31:23.101, 1583739083101
143, -30324.14, -34283.39, -23831.50, -19266.26, -25177.81, -23723.94, -26985.04, -26624.71, 0.000, 0.000, 0.000, 10:31:23.101, 1583739083101
144, -29999.77, -34245.31, -23758.70, -19169.26, -24811.20, -23657.69, -26779.24, -26445.09, 0.000, 0.000, 0.000, 10:31:23.101, 1583739083101
145, -29322.43, -34182.19, -23579.59, -19010.61, -23976.71, -23566.07, -26425.82, -25996.82, 0.000, 0.000, 0.000, 10:31:23.101, 1583739083101
146, -29394.15, -34223.52, -23560.24, -18945.54, -23927.47, -23530.31, -26508.18, -25966.80, 0.000, 0.000, 0.000, 10:31:23.101, 1583739083101
147, -29976.84, -34273.54, -23709.59, -19112.78, -24661.26, -23639.12, -26828.53, -26340.86, 0.000, 0.000, 0.000, 10:31:23.102, 1583739083102
148, -30315.13, -34283.80, -23824.48, -19258.20, -25177.34, -23721.50, -26983.47, -26620.35, 0.000, 0.000, 0.000, 10:31:23.102, 1583739083102
149, -29992.11, -34238.07, -23745.44, -19152.00, -24801.27, -23646.78, -26768.31, -26435.56, 0.006, -0.022, 0.966, 10:31:23.102, 1583739083102
150, -29319.27, -34175.64, -23572.28, -19001.26, -23969.94, -23559.72, -26414.31, -25992.13, 0.000, 0.000, 0.000, 10:31:23.102, 1583739083102
151, -29389.37, -34218.89, -23560.17, -18942.46, -23919.99, -23526.80, -26498.01, -25962.67, 0.000, 0.000, 0.000, 10:31:23.102, 1583739083102
152, -29974.69, -34272.98, -23711.42, -19115.55, -24649.99, -23639.81, -26824.30, -26341.13, 0.000, 0.000, 0.000, 10:31:23.102, 1583739083102
153, -30315.18, -34280.40, -23834.54, -19270.62, -25175.71, -23729.44, -26988.21, -26627.23, 0.000, 0.000, 0.000, 10:31:23.103, 1583739083103
154, -30003.15, -34242.58, -23765.85, -19181.17, -24818.06, -23667.03, -26785.46, -26456.33, 0.000, 0.000, 0.000, 10:31:23.103, 1583739083103
155, -29327.52, -34181.07, -23579.55, -19012.66, -23979.67, -23570.18, -26425.88, -26006.63, 0.000, 0.000, 0.000, 10:31:23.103, 1583739083103
156, -29382.35, -34216.59, -23551.54, -18930.56, -23912.25, -23520.67, -26498.57, -25961.68, 0.000, 0.000, 0.000, 10:31:23.103, 1583739083103
157, -29967.18, -34265.65, -23703.22, -19099.47, -24643.80, -23628.32, -26822.58, -26334.60, 0.000, 0.000, 0.000, 10:31:23.103, 1583739083103
158, -30310.95, -34272.69, -23821.42, -19258.51, -25165.20, -23716.45, -26980.72, -26618.40, 0.000, 0.000, 0.000, 10:31:23.103, 1583739083103
159, -30009.67, -34245.38, -23758.45, -19172.05, -24817.10, -23655.95, -26784.12, -26452.15, 0.000, 0.000, 0.000, 10:31:23.104, 1583739083104
160, -29337.13, -34188.49, -23582.47, -19013.71, -23984.00, -23566.67, -26429.75, -26008.31, 0.008, -0.018, 0.966, 10:31:23.104, 1583739083104
161, -29391.58, -34219.04, -23569.73, -18948.98, -23918.36, -23529.17, -26508.38, -25969.55, 0.000, 0.000, 0.000, 10:31:23.104, 1583739083104
162, -29976.66, -34274.70, -23728.14, -19112.71, -24647.40, -23635.76, -26834.30, -26341.91, 0.000, 0.000, 0.000, 10:31:23.105, 1583739083105
163, -30316.68, -34281.56, -23836.70, -19256.18, -25170.54, -23715.96, -26987.56, -26618.27, 0.000, 0.000, 0.000, 10:31:23.105, 1583739083105
164, -30018.75, -34253.20, -23761.27, -19168.34, -24824.21, -23654.38, -26788.41, -26452.08, 0.000, 0.000, 0.000, 10:31:23.105, 1583739083105
165, -29347.17, -34195.87, -23581.40, -19013.11, -23989.32, -23565.87, -26430.54, -26008.40, 0.000, 0.000, 0.000, 10:31:23.105, 1583739083105
166, -29400.34, -34232.68, -23577.94, -18955.29, -23928.37, -23534.98, -26512.79, -25973.49, 0.000, 0.000, 0.000, 10:31:23.105, 1583739083105
167, -29978.31, -34279.39, -23726.85, -19115.75, -24650.75, -23639.67, -26833.89, -26342.20, 0.000, 0.000, 0.000, 10:31:23.106, 1583739083106
168, -30327.34, -34289.09, -23840.84, -19273.10, -25180.83, -23730.38, -26995.72, -26629.93, 0.000, 0.000, 0.000, 10:31:23.106, 1583739083106
169, -30033.19, -34254.02, -23778.61, -19184.66, -24846.47, -23669.45, -26802.33, -26469.31, 0.000, 0.000, 0.000, 10:31:23.106, 1583739083106
170, -29357.54, -34191.64, -23596.56, -19022.70, -24007.31, -23578.63, -26442.94, -26023.55, 0.006, -0.016, 0.966, 10:31:23.106, 1583739083106
171, -29400.28, -34231.65, -23571.52, -18958.48, -23927.01, -23542.49, -26514.40, -25980.79, 0.000, 0.000, 0.000, 10:31:23.106, 1583739083106
172, -29979.59, -34286.59, -23716.74, -19116.08, -24648.12, -23645.51, -26838.14, -26349.22, 0.000, 0.000, 0.000, 10:31:23.106, 1583739083106
173, -30325.71, -34292.27, -23835.56, -19269.10, -25178.61, -23731.99, -26999.48, -26634.63, 0.000, 0.000, 0.000, 10:31:23.107, 1583739083107
174, -30034.57, -34257.78, -23779.06, -19188.62, -24847.67, -23675.21, -26812.10, -26476.82, 0.000, 0.000, 0.000, 10:31:23.107, 1583739083107
175, -29356.45, -34194.57, -23605.99, -19032.02, -24013.62, -23587.33, -26456.66, -26030.64, 0.000, 0.000, 0.000, 10:31:23.107, 1583739083107
176, -29395.58, -34235.07, -23577.22, -18958.41, -23924.35, -23545.28, -26520.43, -25981.13, 0.000, 0.000, 0.000, 10:31:23.107, 1583739083107
177, -29978.00, -34286.82, -23720.01, -19116.35, -24643.18, -23647.21, -26838.72, -26348.73, 0.000, 0.000, 0.000, 10:31:23.107, 1583739083107
178, -30332.84, -34301.30, -23840.95, -19276.12, -25183.33, -23737.62, -27005.29, -26639.52, 0.000, 0.000, 0.000, 10:31:23.107, 1583739083107
179, -30043.11, -34265.80, -23774.05, -19182.67, -24853.80, -23672.49, -26813.78, -26479.66, 0.000, 0.000, 0.000, 10:31:23.108, 1583739083108
180, -29366.95, -34205.45, -23594.01, -19023.84, -24014.85, -23582.23, -26453.04, -26033.34, 0.004, -0.016, 0.968, 10:31:23.108, 1583739083108
181, -29399.40, -34242.02, -23570.34, -18952.29, -23924.32, -23541.75, -26515.70, -25980.95, 0.000, 0.000, 0.000, 10:31:23.108, 1583739083108
182, -29975.61, -34291.00, -23713.68, -19111.41, -24638.44, -23642.56, -26832.31, -26344.41, 0.000, 0.000, 0.000, 10:31:23.108, 1583739083108
183, -30325.46, -34298.57, -23826.73, -19264.34, -25172.80, -23726.13, -26991.99, -26627.14, 0.000, 0.000, 0.000, 10:31:23.110, 1583739083110
184, -30045.35, -34267.55, -23763.84, -19175.34, -24847.85, -23662.25, -26801.26, -26469.40, 0.000, 0.000, 0.000, 10:31:23.110, 1583739083110
185, -29368.34, -34206.75, -23585.49, -19019.19, -24009.33, -23571.46, -26439.90, -26022.21, 0.000, 0.000, 0.000, 10:31:23.110, 1583739083110
186, -29397.33, -34239.68, -23564.77, -18950.52, -23912.79, -23531.89, -26502.73, -25970.29, 0.000, 0.000, 0.000, 10:31:23.110, 1583739083110
187, -29974.07, -34289.50, -23709.75, -19110.76, -24630.77, -23637.93, -26828.11, -26339.92, 0.000, 0.000, 0.000, 10:31:23.110, 1583739083110
188, -30323.20, -34298.95, -23830.11, -19267.11, -25169.99, -23726.40, -26988.81, -26628.21, 0.000, 0.000, 0.000, 10:31:23.110, 1583739083110
189, -30044.70, -34263.26, -23768.11, -19177.26, -24847.47, -23660.15, -26796.03, -26470.16, 0.000, 0.000, 0.000, 10:31:23.110, 1583739083110
190, -29361.96, -34199.55, -23587.71, -19020.82, -24006.89, -23569.49, -26432.75, -26021.05, 0.004, -0.020, 0.970, 10:31:23.110, 1583739083110
191, -29384.43, -34236.08, -23561.22, -18956.94, -23902.11, -23530.89, -26491.71, -25962.82, 0.000, 0.000, 0.000, 10:31:23.110, 1583739083110
192, -29963.56, -34288.45, -23706.01, -19111.14, -24615.73, -23630.80, -26811.81, -26326.69, 0.000, 0.000, 0.000, 10:31:23.111, 1583739083111
193, -30311.00, -34290.84, -23810.24, -19250.13, -25150.56, -23709.41, -26969.53, -26610.91, 0.000, 0.000, 0.000, 10:31:23.111, 1583739083111
194, -30038.33, -34257.15, -23752.88, -19171.81, -24842.20, -23654.56, -26789.64, -26465.65, 0.000, 0.000, 0.000, 10:31:23.111, 1583739083111
195, -29356.67, -34190.05, -23575.97, -19006.22, -24002.33, -23560.62, -26427.61, -26015.06, 0.000, 0.000, 0.000, 10:31:23.111, 1583739083111
196, -29371.11, -34222.26, -23548.77, -18934.27, -23892.49, -23519.38, -26481.16, -25952.70, 0.000, 0.000, 0.000, 10:31:23.111, 1583739083111
197, -29948.81, -34277.32, -23692.67, -19094.98, -24605.74, -23622.15, -26803.43, -26318.02, 0.000, 0.000, 0.000, 10:31:23.111, 1583739083111
198, -30309.66, -34282.55, -23812.14, -19255.33, -25157.18, -23712.38, -26972.27, -26611.56, 0.000, 0.000, 0.000, 10:31:23.112, 1583739083112
199, -30042.73, -34251.05, -23755.25, -19174.46, -24850.60, -23656.04, -26792.01, -26467.46, 0.000, 0.000, 0.000, 10:31:23.112, 1583739083112
200, -29355.86, -34184.49, -23577.27, -19007.52, -24005.84, -23559.74, -26426.64, -26014.63, 0.000, -0.024, 0.974, 10:31:23.112, 1583739083112
201, -29362.01, -34216.52, -23544.41, -18926.25, -23884.71, -23511.15, -26475.51, -25945.17, 0.000, 0.000, 0.000, 10:31:23.112, 1583739083112
202, -29940.36, -34267.10, -23688.13, -19082.24, -24592.30, -23611.46, -26795.72, -26308.58, 0.000, 0.000, 0.000, 10:31:23.112, 1583739083112
203, -30305.21, -34274.30, -23809.12, -19248.63, -25148.48, -23708.18, -26968.09, -26607.31, 0.000, 0.000, 0.000, 10:31:23.112, 1583739083112
204, -30044.79, -34249.60, -23761.96, -19177.62, -24856.35, -23657.51, -26797.04, -26471.59, 0.000, 0.000, 0.000, 10:31:23.113, 1583739083113
205, -29362.86, -34195.73, -23589.74, -19029.76, -24022.11, -23572.93, -26435.72, -26029.66, 0.000, 0.000, 0.000, 10:31:23.113, 1583739083113
206, -29366.44, -34227.70, -23553.20, -18946.77, -23890.82, -23524.96, -26482.66, -25957.66, 0.000, 0.000, 0.000, 10:31:23.113, 1583739083113
207, -29941.37, -34278.88, -23699.58, -19100.55, -24598.29, -23625.01, -26805.04, -26319.87, 0.000, 0.000, 0.000, 10:31:23.113, 1583739083113
208, -30306.33, -34284.76, -23816.21, -19258.40, -25152.66, -23714.62, -26971.54, -26612.90, 0.000, 0.000, 0.000, 10:31:23.113, 1583739083113
209, -30046.46, -34249.84, -23748.35, -19165.53, -24852.66, -23647.09, -26789.77, -26468.09, 0.000, 0.000, 0.000, 10:31:23.113, 1583739083113
210, -29359.42, -34185.61, -23574.85, -19009.60, -24013.71, -23556.97, -26426.44, -26021.32, 0.000, -0.020, 0.968, 10:31:23.114, 1583739083114
211, -29364.31, -34219.60, -23548.03, -18940.78, -23884.63, -23517.30, -26474.99, -25949.95, 0.000, 0.000, 0.000, 10:31:23.114, 1583739083114
212, -29945.46, -34271.91, -23692.71, -19096.57, -24594.38, -23618.44, -26798.87, -26310.73, 0.000, 0.000, 0.000, 10:31:23.114, 1583739083114
213, -30310.39, -34281.03, -23818.55, -19263.38, -25158.27, -23716.41, -26972.61, -26611.25, 0.000, 0.000, 0.000, 10:31:23.114, 1583739083114
214, -30056.21, -34254.38, -23763.23, -19186.04, -24870.58, -23663.48, -26801.02, -26477.41, 0.000, 0.000, 0.000, 10:31:23.114, 1583739083114
215, -29364.36, -34181.63, -23578.16, -19018.21, -24026.61, -23566.67, -26430.47, -26024.22, 0.000, 0.000, 0.000, 10:31:23.115, 1583739083115
216, -29356.58, -34208.52, -23552.84, -18943.17, -23893.12, -23523.98, -26478.14, -25949.30, 0.000, 0.000, 0.000, 10:31:23.115, 1583739083115
217, -29932.52, -34266.83, -23700.11, -19096.82, -24599.81, -23624.99, -26804.21, -26311.33, 0.000, 0.000, 0.000, 10:31:23.115, 1583739083115
218, -30297.10, -34276.20, -23812.86, -19258.49, -25150.99, -23716.03, -26971.40, -26607.49, 0.000, 0.000, 0.000, 10:31:23.117, 1583739083117
219, -30051.52, -34247.27, -23761.76, -19177.93, -24869.36, -23658.11, -26800.01, -26475.10, 0.000, 0.000, 0.000, 10:31:23.117, 1583739083117
220, -29367.33, -34178.07, -23582.72, -19016.69, -24024.15, -23564.68, -26432.55, -26024.81, 0.000, -0.018, 0.968, 10:31:23.117, 1583739083117
221, -29357.81, -34214.35, -23553.40, -18940.02, -23884.60, -23519.67, -26475.28, -25945.70, 0.000, 0.000, 0.000, 10:31:23.117, 1583739083117
222, -29929.81, -34268.87, -23697.50, -19087.58, -24585.80, -23614.26, -26797.04, -26301.27, 0.000, 0.000, 0.000, 10:31:23.118, 1583739083118
223, -30303.02, -34278.46, -23821.97, -19258.84, -25153.47, -23712.94, -26973.73, -26605.04, 0.000, 0.000, 0.000, 10:31:23.118, 1583739083118
224, -30061.89, -34245.22, -23770.95, -19186.49, -24881.20, -23662.43, -26808.17, -26480.27, 0.000, 0.000, 0.000, 10:31:23.118, 1583739083118
225, -29372.78, -34180.78, -23592.80, -19028.42, -24037.02, -23572.62, -26440.08, -26032.49, 0.000, 0.000, 0.000, 10:31:23.118, 1583739083118
226, -29353.05, -34212.88, -23559.92, -18949.32, -23885.68, -23526.08, -26473.76, -25947.58, 0.000, 0.000, 0.000, 10:31:23.118, 1583739083118
227, -29934.21, -34270.01, -23704.67, -19102.16, -24588.06, -23626.13, -26798.22, -26307.53, 0.000, 0.000, 0.000, 10:31:23.119, 1583739083119
228, -30309.41, -34277.98, -23824.43, -19263.94, -25155.66, -23719.98, -26972.77, -26608.16, 0.000, 0.000, 0.000, 10:31:23.119, 1583739083119
229, -30066.09, -34248.93, -23766.41, -19179.72, -24881.20, -23660.82, -26803.32, -26479.98, 0.000, 0.000, 0.000, 10:31:23.119, 1583739083119
230, -29377.21, -34181.54, -23593.12, -19030.95, -24044.42, -23578.68, -26439.27, -26038.13, 0.004, -0.018, 0.970, 10:31:23.119, 1583739083119
231, -29349.31, -34211.80, -23559.72, -18953.03, -23886.30, -23534.98, -26474.14, -25952.54, 0.000, 0.000, 0.000, 10:31:23.119, 1583739083119
232, -29926.04, -34273.09, -23703.82, -19098.71, -24584.21, -23629.39, -26796.21, -26310.04, 0.000, 0.000, 0.000, 10:31:23.119, 1583739083119
233, -30302.26, -34282.52, -23822.29, -19261.55, -25151.88, -23724.79, -26971.04, -26613.93, 0.000, 0.000, 0.000, 10:31:23.120, 1583739083120
234, -30066.60, -34248.57, -23770.61, -19183.38, -24888.71, -23668.91, -26809.58, -26491.11, 0.000, 0.000, 0.000, 10:31:23.120, 1583739083120
235, -29380.50, -34185.72, -23592.33, -19031.75, -24047.66, -23582.41, -26443.97, -26047.25, 0.000, 0.000, 0.000, 10:31:23.120, 1583739083120
236, -29350.97, -34217.46, -23555.36, -18958.03, -23885.61, -23540.37, -26475.84, -25960.81, 0.000, 0.000, 0.000, 10:31:23.120, 1583739083120
237, -29926.66, -34270.39, -23694.12, -19096.14, -24580.19, -23630.58, -26797.26, -26312.16, 0.000, 0.000, 0.000, 10:31:23.120, 1583739083120
238, -30306.51, -34279.55, -23819.76, -19260.86, -25155.12, -23726.17, -26977.08, -26616.05, 0.000, 0.000, 0.000, 10:31:23.120, 1583739083120
239, -30075.39, -34250.07, -23777.49, -19192.19, -24904.78, -23675.10, -26820.51, -26499.45, 0.000, 0.000, 0.000, 10:31:23.120, 1583739083120
240, -29385.70, -34180.75, -23598.32, -19029.92, -24059.15, -23582.25, -26450.85, -26050.73, 0.002, -0.018, 0.972, 10:31:23.121, 1583739083121
241, -29349.34, -34209.30, -23561.84, -18946.72, -23888.05, -23534.20, -26476.02, -25956.61, 0.000, 0.000, 0.000, 10:31:23.569, 1583739083569
242, -29924.78, -34267.52, -23707.91, -19093.06, -24583.10, -23628.90, -26797.57, -26311.53, 0.000, 0.000, 0.000, 10:31:23.570, 1583739083570
243, -30300.69, -34274.88, -23827.72, -19262.78, -25159.64, -23727.54, -26975.96, -26617.06, 0.000, 0.000, 0.000, 10:31:23.570, 1583739083570
244, -30072.53, -34241.48, -23779.19, -19190.63, -24908.58, -23673.74, -26819.12, -26498.71, 0.000, 0.000, 0.000, 10:31:23.570, 1583739083570
245, -29387.89, -34176.60, -23607.44, -19034.05, -24066.64, -23582.88, -26453.89, -26050.44, 0.000, 0.000, 0.000, 10:31:23.570, 1583739083570
246, -29344.64, -34205.34, -23563.88, -18947.62, -23884.43, -23530.15, -26474.59, -25948.54, 0.000, 0.000, 0.000, 10:31:23.570, 1583739083570
247, -29915.66, -34265.56, -23699.73, -19088.88, -24573.42, -23622.20, -26796.50, -26299.62, 0.000, 0.000, 0.000, 10:31:23.570, 1583739083570
248, -30301.68, -34279.10, -23827.74, -19263.94, -25158.36, -23726.17, -26983.27, -26611.63, 0.000, 0.000, 0.000, 10:31:23.570, 1583739083570
249, -30076.64, -34246.80, -23782.32, -19190.38, -24909.34, -23670.54, -26825.80, -26495.18, 0.000, 0.000, 0.000, 10:31:23.571, 1583739083571
250, -29383.63, -34176.89, -23597.36, -19029.63, -24061.52, -23576.31, -26451.32, -26044.41, 0.000, 0.000, 0.000, 10:31:23.571, 1583739083571
251, -29340.35, -34204.96, -23551.32, -18945.34, -23875.42, -23526.80, -26472.09, -25944.12, 0.004, -0.018, 0.974, 10:31:23.571, 1583739083571
252, -29916.27, -34262.99, -23694.73, -19090.33, -24569.35, -23623.54, -26796.66, -26298.37, 0.000, 0.000, 0.000, 10:31:23.575, 1583739083575
253, -30300.47, -34274.66, -23821.64, -19263.87, -25156.64, -23724.83, -26979.81, -26609.24, 0.000, 0.000, 0.000, 10:31:23.575, 1583739083575
254, -30078.29, -34244.23, -23772.00, -19187.77, -24911.73, -23666.94, -26823.08, -26495.85, 0.000, 0.000, 0.000, 10:31:23.575, 1583739083575
255, -29388.90, -34177.92, -23590.46, -19024.04, -24067.22, -23572.84, -26450.47, -26045.97, 0.000, 0.000, 0.000, 10:31:23.575, 1583739083575
0, -29335.37, -34203.87, -23549.84, -18941.40, -23875.95, -23526.30, -26467.77, -25942.48, 0.000, 0.000, 0.000, 10:31:23.575, 1583739083575
1, -29905.94, -34260.69, -23690.84, -19087.47, -24561.59, -23621.05, -26791.22, -26294.66, 0.000, 0.000, 0.000, 10:31:23.577, 1583739083577
2, -30293.63, -34271.06, -23823.20, -19264.45, -25155.68, -23725.91, -26980.10, -26609.66, 0.000, 0.000, 0.000, 10:31:23.577, 1583739083577
3, -30080.22, -34244.35, -23777.61, -19189.80, -24920.09, -23671.75, -26826.65, -26502.33, 0.000, 0.000, 0.000, 10:31:23.577, 1583739083577
4, -29388.74, -34181.29, -23593.29, -19030.83, -24072.09, -23578.68, -26449.96, -26052.66, 0.000, 0.000, 0.000, 10:31:23.577, 1583739083577
5, -29331.25, -34206.80, -23550.87, -18946.28, -23871.66, -23529.93, -26464.55, -25945.26, 0.004, -0.018, 0.968, 10:31:23.577, 1583739083577
6, -29902.50, -34264.17, -23690.66, -19087.94, -24555.71, -23622.87, -26786.33, -26295.48, 0.000, 0.000, 0.000, 10:31:23.577, 1583739083577
7, -30292.18, -34272.78, -23817.91, -19262.15, -25144.86, -23723.98, -26970.78, -26608.16, 0.000, 0.000, 0.000, 10:31:23.578, 1583739083578
8, -30086.41, -34247.25, -23773.45, -19186.38, -24913.52, -23669.40, -26822.52, -26502.22, 0.000, 0.000, 0.000, 10:31:23.578, 1583739083578
9, -29392.34, -34182.32, -23588.78, -19026.52, -24066.17, -23576.55, -26447.48, -26052.12, 0.000, 0.000, 0.000, 10:31:23.578, 1583739083578
10, -29325.69, -34209.68, -23542.46, -18938.48, -23860.69, -23525.59, -26457.85, -25939.67, 0.000, 0.000, 0.000, 10:31:23.578, 1583739083578
11, -29896.96, -34267.73, -23682.50, -19072.79, -24546.37, -23615.18, -26784.09, -26288.04, 0.000, 0.000, 0.000, 10:31:23.578, 1583739083578
12, -30286.05, -34266.27, -23811.54, -19250.73, -25141.55, -23718.64, -26969.79, -26602.17, 0.000, 0.000, 0.000, 10:31:23.578, 1583739083578
13, -30083.84, -34243.23, -23766.61, -19180.50, -24915.42, -23664.55, -26818.70, -26499.31, 0.000, 0.000, 0.000, 10:31:23.578, 1583739083578
14, -29395.09, -34181.32, -23586.03, -19021.60, -24071.91, -23571.08, -26446.00, -26050.82, 0.000, 0.000, 0.000, 10:31:23.578, 1583739083578
15, -29320.99, -34201.95, -23533.55, -18928.33, -23853.24, -23515.35, -26449.98, -25930.30, 0.006, -0.018, 0.972, 10:31:23.579, 1583739083579
16, -29889.40, -34257.76, -23672.31, -19066.57, -24530.48, -23606.55, -26771.94, -26277.40, 0.000, 0.000, 0.000, 10:31:23.579, 1583739083579
17, -30287.64, -34268.53, -23808.90, -19255.16, -25132.84, -23720.21, -26965.08, -26599.69, 0.000, 0.000, 0.000, 10:31:23.579, 1583739083579
18, -30091.39, -34243.32, -23778.88, -19193.98, -24924.03, -23675.62, -26824.98, -26506.31, 0.000, 0.000, 0.000, 10:31:23.579, 1583739083579
19, -29394.73, -34178.23, -23599.80, -19029.11, -24081.50, -23580.17, -26449.11, -26054.44, 0.000, 0.000, 0.000, 10:31:23.579, 1583739083579
20, -29315.41, -34200.16, -23545.82, -18937.49, -23858.83, -23524.99, -26451.43, -25932.40, 0.000, 0.000, 0.000, 10:31:23.579, 1583739083579
21, -29882.40, -34253.78, -23679.93, -19070.71, -24531.17, -23610.50, -26771.69, -26273.71, 0.000, 0.000, 0.000, 10:31:23.579, 1583739083579
22, -30280.51, -34266.54, -23808.54, -19250.84, -25130.49, -23717.01, -26959.38, -26591.76, 0.000, 0.000, 0.000, 10:31:23.581, 1583739083581
23, -30090.57, -34244.70, -23767.75, -19188.57, -24919.20, -23670.43, -26818.72, -26499.60, 0.000, 0.000, 0.000, 10:31:23.581, 1583739083581
24, -29401.53, -34181.63, -23590.01, -19027.53, -24077.86, -23578.70, -26447.54, -26052.57, 0.000, 0.000, 0.000, 10:31:23.581, 1583739083581
25, -29317.53, -34202.21, -23542.46, -18934.81, -23854.68, -23525.39, -26449.73, -25929.74, 0.002, -0.020, 0.968, 10:31:23.581, 1583739083581
26, -29884.04, -34260.84, -23681.47, -19073.28, -24528.11, -23615.64, -26773.88, -26274.94, 0.000, 0.000, 0.000, 10:31:23.581, 1583739083581
27, -30282.54, -34272.06, -23813.97, -19262.26, -25131.83, -23727.18, -26969.19, -26600.01, 0.000, 0.000, 0.000, 10:31:23.581, 1583739083581
28, -30095.04, -34246.52, -23784.38, -19207.28, -24934.22, -23684.29, -26835.37, -26514.98, 0.000, 0.000, 0.000, 10:31:23.581, 1583739083581
29, -29397.88, -34173.20, -23590.72, -19029.89, -24082.10, -23578.56, -26449.24, -26057.75, 0.000, 0.000, 0.000, 10:31:23.581, 1583739083581
30, -29308.99, -34196.96, -23535.51, -18931.28, -23847.23, -23520.99, -26444.75, -25928.04, 0.000, 0.000, 0.000, 10:31:23.581, 1583739083581
31, -29879.12, -34257.64, -23676.35, -19065.75, -24520.62, -23608.29, -26768.54, -26271.35, 0.000, 0.000, 0.000, 10:31:23.583, 1583739083583
32, -30282.14, -34269.02, -23805.72, -19247.71, -25122.20, -23715.07, -26956.40, -26592.07, 0.000, 0.000, 0.000, 10:31:23.583, 1583739083583
33, -30099.28, -34247.45, -23767.71, -19188.05, -24923.47, -23669.13, -26824.19, -26506.91, 0.000, 0.000, 0.000, 10:31:23.583, 1583739083583
34, -29406.51, -34177.83, -23586.25, -19027.06, -24083.42, -23575.79, -26452.26, -26058.36, 0.000, 0.000, 0.000, 10:31:23.583, 1583739083583
35, -29309.10, -34196.02, -23534.91, -18938.14, -23844.21, -23521.46, -26446.07, -25926.70, -0.002, -0.022, 0.968, 10:31:23.583, 1583739083583
36, -29877.96, -34261.18, -23674.70, -19077.15, -24512.89, -23612.43, -26767.91, -26272.04, 0.000, 0.000, 0.000, 10:31:23.583, 1583739083583
37, -30283.26, -34268.69, -23804.96, -19256.79, -25120.77, -23718.93, -26960.00, -26591.82, 0.000, 0.000, 0.000, 10:31:23.584, 1583739083584
38, -30104.56, -34241.73, -23768.33, -19189.51, -24924.29, -23666.50, -26823.79, -26503.16, 0.000, 0.000, 0.000, 10:31:23.584, 1583739083584
39, -29412.03, -34178.81, -23585.27, -19024.57, -24079.62, -23570.05, -26446.22, -26052.10, 0.000, 0.000, 0.000, 10:31:23.584, 1583739083584
40, -29312.63, -34202.28, -23536.30, -18937.22, -23838.58, -23518.95, -26439.52, -25919.95, 0.000, 0.000, 0.000, 10:31:23.584, 1583739083584
41, -29883.88, -34268.35, -23678.05, -19073.12, -24511.68, -23608.27, -26763.73, -26262.63, 0.000, 0.000, 0.000, 10:31:23.584, 1583739083584
42, -30293.92, -34285.56, -23806.64, -19255.49, -25125.04, -23717.30, -26957.63, -26588.05, 0.000, 0.000, 0.000, 10:31:23.584, 1583739083584
43, -30118.30, -34258.25, -23767.97, -19185.42, -24931.04, -23666.38, -26823.77, -26506.20, 0.000, 0.000, 0.000, 10:31:23.584, 1583739083584
44, -29424.60, -34185.96, -23588.73, -19021.91, -24088.23, -23573.40, -26447.83, -26061.73, 0.000, 0.000, 0.000, 10:31:23.586, 1583739083586
45, -29313.02, -34207.31, -23538.51, -18935.91, -23840.24, -23523.87, -26436.84, -25926.68, 0.000, -0.026, 0.966, 10:31:23.586, 1583739083586
46, -29876.37, -34270.30, -23675.73, -19067.40, -24505.24, -23610.24, -26761.43, -26266.16, 0.000, 0.000, 0.000, 10:31:23.586, 1583739083586
47, -30286.57, -34283.33, -23799.82, -19242.68, -25116.12, -23714.39, -26957.12, -26588.45, 0.000, 0.000, 0.000, 10:31:23.586, 1583739083586
48, -30111.55, -34243.05, -23762.36, -19181.80, -24929.64, -23664.28, -26823.57, -26507.25, 0.000, 0.000, 0.000, 10:31:23.586, 1583739083586
49, -29423.10, -34176.84, -23588.67, -19030.83, -24090.24, -23576.55, -26450.58, -26064.97, 0.000, 0.000, 0.000, 10:31:23.586, 1583739083586
50, -29314.00, -34207.62, -23532.97, -18944.60, -23835.65, -23526.73, -26438.47, -25927.96, 0.000, 0.000, 0.000, 10:31:23.586, 1583739083586
51, -29871.63, -34266.77, -23668.37, -19071.07, -24496.21, -23609.41, -26760.71, -26263.84, 0.000, 0.000, 0.000, 10:31:23.586, 1583739083586
52, -30281.05, -34272.53, -23794.21, -19246.06, -25108.59, -23712.27, -26953.48, -26586.10, 0.000, 0.000, 0.000, 10:31:23.587, 1583739083587
53, -30120.00, -34253.42, -23765.20, -19193.44, -24935.85, -23669.74, -26827.86, -26513.39, 0.000, 0.000, 0.000, 10:31:23.587, 1583739083587
54, -29425.49, -34185.58, -23590.57, -19032.76, -24094.44, -23575.55, -26450.72, -26064.88, 0.000, 0.000, 0.000, 10:31:23.587, 1583739083587
55, -29303.87, -34201.83, -23535.07, -18934.32, -23830.74, -23519.98, -26431.14, -25920.31, -0.004, -0.020, 0.968, 10:31:23.587, 1583739083587
56, -29866.67, -34264.22, -23673.67, -19060.23, -24490.49, -23603.49, -26752.27, -26257.02, 0.000, 0.000, 0.000, 10:31:23.587, 1583739083587
57, -30279.93, -34275.21, -23799.96, -19243.11, -25108.88, -23710.39, -26947.33, -26581.16, 0.000, 0.000, 0.000, 10:31:23.587, 1583739083587
58, -30115.60, -34246.34, -23767.53, -19184.93, -24939.90, -23662.27, -26821.00, -26505.35, 0.000, 0.000, 0.000, 10:31:23.589, 1583739083589
59, -29426.34, -34179.17, -23594.10, -19022.47, -24103.25, -23569.69, -26447.63, -26060.14, 0.000, 0.000, 0.000, 10:31:23.589, 1583739083589
60, -29302.00, -34193.94, -23533.50, -18924.01, -23830.07, -23512.34, -26425.82, -25910.83, 0.000, 0.000, 0.000, 10:31:23.589, 1583739083589
61, -29861.75, -34260.24, -23668.44, -19055.15, -24483.94, -23596.40, -26747.30, -26245.35, 0.000, 0.000, 0.000, 10:31:23.589, 1583739083589
62, -30277.09, -34274.10, -23800.38, -19244.45, -25107.04, -23708.34, -26948.22, -26573.38, 0.000, 0.000, 0.000, 10:31:23.589, 1583739083589
63, -30119.69, -34249.27, -23769.38, -19186.20, -24940.57, -23663.37, -26825.36, -26503.63, 0.000, 0.000, 0.000, 10:31:23.589, 1583739083589
64, -29425.94, -34179.37, -23591.35, -19025.09, -24098.06, -23569.29, -26447.07, -26057.86, 0.000, 0.000, 0.000, 10:31:23.589, 1583739083589
65, -29295.13, -34194.28, -23526.71, -18930.81, -23818.31, -23513.59, -26420.95, -25907.88, 0.000, -0.022, 0.968, 10:31:23.589, 1583739083589
66, -29855.65, -34256.82, -23660.97, -19055.42, -24470.78, -23597.34, -26742.41, -26242.42, 0.000, 0.000, 0.000, 10:31:23.589, 1583739083589
67, -30275.79, -34273.31, -23805.48, -19244.27, -25105.46, -23712.56, -26951.82, -26576.09, 0.000, 0.000, 0.000, 10:31:23.589, 1583739083589
68, -30125.32, -34248.59, -23780.67, -19186.67, -24948.48, -23666.50, -26835.77, -26508.50, 0.000, 0.000, 0.000, 10:31:23.590, 1583739083590
69, -29436.69, -34180.51, -23599.31, -19029.09, -24110.36, -23572.30, -26457.67, -26064.68, 0.000, 0.000, 0.000, 10:31:23.590, 1583739083590
70, -29302.29, -34201.54, -23533.28, -18937.87, -23824.68, -23518.15, -26429.69, -25913.74, 0.000, 0.000, 0.000, 10:31:23.590, 1583739083590
71, -29859.87, -34264.33, -23659.83, -19053.28, -24470.00, -23594.37, -26746.03, -26241.62, 0.000, 0.000, 0.000, 10:31:23.590, 1583739083590
72, -30275.75, -34274.14, -23785.94, -19232.49, -25092.29, -23700.04, -26940.11, -26566.75, 0.000, 0.000, 0.000, 10:31:23.591, 1583739083591
73, -30130.31, -34249.44, -23768.49, -19186.38, -24946.83, -23663.01, -26829.09, -26506.98, 0.000, 0.000, 0.000, 10:31:23.591, 1583739083591
74, -29440.76, -34186.23, -23597.00, -19032.31, -24115.83, -23574.32, -26457.96, -26066.89, 0.000, 0.000, 0.000, 10:31:23.591, 1583739083591
75, -29305.01, -34209.84, -23536.92, -18934.07, -23827.32, -23518.44, -26429.39, -25913.25, 0.000, -0.022, 0.968, 10:31:23.592, 1583739083592
76, -29864.43, -34272.29, -23666.09, -19050.86, -24466.80, -23596.20, -26745.43, -26240.63, 0.000, 0.000, 0.000, 10:31:23.592, 1583739083592
77, -30283.01, -34284.04, -23795.80, -19235.62, -25091.64, -23705.79, -26946.59, -26570.81, 0.000, 0.000, 0.000, 10:31:23.592, 1583739083592
78, -30137.01, -34257.18, -23772.96, -19187.83, -24949.33, -23665.18, -26834.86, -26513.10, 0.000, 0.000, 0.000, 10:31:23.592, 1583739083592
79, -29452.80, -34189.50, -23604.80, -19038.41, -24121.13, -23580.24, -26466.12, -26075.99, 0.000, 0.000, 0.000, 10:31:23.593, 1583739083593
80, -29300.70, -34203.09, -23534.29, -18929.85, -23818.49, -23514.50, -26425.17, -25907.77, 0.000, 0.000, 0.000, 10:31:23.593, 1583739083593
81, -29855.63, -34266.43, -23664.21, -19043.57, -24455.36, -23587.84, -26739.53, -26230.64, 0.000, 0.000, 0.000, 10:31:23.593, 1583739083593
82, -30276.24, -34278.57, -23787.29, -19226.93, -25080.20, -23694.44, -26936.96, -26560.29, 0.000, 0.000, 0.000, 10:31:23.593, 1583739083593
83, -30137.91, -34253.15, -23763.73, -19178.64, -24942.18, -23654.49, -26827.10, -26507.25, 0.000, 0.000, 0.000, 10:31:23.594, 1583739083594
84, -29450.30, -34181.52, -23597.23, -19023.39, -24112.77, -23565.91, -26456.42, -26068.10, 0.000, 0.000, 0.000, 10:31:23.594, 1583739083594
85, -29299.38, -34200.31, -23535.43, -18927.66, -23812.59, -23511.53, -26422.20, -25907.62, 0.000, 0.000, 0.000, 10:31:23.594, 1583739083594
86, -29852.07, -34263.86, -23665.02, -19050.64, -24453.10, -23592.58, -26742.68, -26235.56, 0.000, -0.020, 0.972, 10:31:23.594, 1583739083594
87, -30277.11, -34278.57, -23801.99, -19244.38, -25098.48, -23709.30, -26956.00, -26573.81, 0.000, 0.000, 0.000, 10:31:23.594, 1583739083594
88, -30143.49, -34259.99, -23772.78, -19189.17, -24963.30, -23663.90, -26843.75, -26518.38, 0.000, 0.000, 0.000, 10:31:23.594, 1583739083594
89, -29455.78, -34191.75, -23599.06, -19031.55, -24131.03, -23573.27, -26466.65, -26077.94, 0.000, 0.000, 0.000, 10:31:23.595, 1583739083595
90, -29295.51, -34204.02, -23528.99, -18930.34, -23821.84, -23512.18, -26422.94, -25907.15, 0.000, 0.000, 0.000, 10:31:23.595, 1583739083595
91, -29846.10, -34263.10, -23657.67, -19043.26, -24453.81, -23585.36, -26738.41, -26228.25, 0.000, 0.000, 0.000, 10:31:23.595, 1583739083595
92, -30273.22, -34274.79, -23793.97, -19231.69, -25092.60, -23699.62, -26943.60, -26564.11, 0.000, 0.000, 0.000, 10:31:23.595, 1583739083595
93, -30145.37, -34253.73, -23772.22, -19189.02, -24966.92, -23663.19, -26836.80, -26517.42, 0.000, 0.000, 0.000, 10:31:23.595, 1583739083595
94, -29461.07, -34190.32, -23598.10, -19035.84, -24139.64, -23575.88, -26465.18, -26081.69, 0.000, 0.000, 0.000, 10:31:23.595, 1583739083595
95, -29294.46, -34204.79, -23530.11, -18935.66, -23823.03, -23518.73, -26422.15, -25910.90, 0.000, 0.000, 0.000, 10:31:23.596, 1583739083596
96, -29843.06, -34267.10, -23658.45, -19047.20, -24451.15, -23592.06, -26736.13, -26231.49, 0.000, -0.020, 0.972, 10:31:23.596, 1583739083596
97, -30273.47, -34282.93, -23788.27, -19233.09, -25088.67, -23701.79, -26940.71, -26566.37, 0.000, 0.000, 0.000, 10:31:23.596, 1583739083596
98, -30154.38, -34262.86, -23768.67, -19192.23, -24972.26, -23665.06, -26839.82, -26522.82, 0.000, 0.000, 0.000, 10:31:23.596, 1583739083596
99, -29465.95, -34193.30, -23598.68, -19039.46, -24145.52, -23577.54, -26465.96, -26085.09, 0.000, 0.000, 0.000, 10:31:23.596, 1583739083596
100, -29291.40, -34203.93, -23521.95, -18929.76, -23816.39, -23512.85, -26413.44, -25906.99, 0.000, 0.000, 0.000, 10:31:23.596, 1583739083596
101, -29837.83, -34259.77, -23644.48, -19036.58, -24438.50, -23581.49, -26726.65, -26223.15, 0.000, 0.000, 0.000, 10:31:23.598, 1583739083598
102, -30269.76, -34278.28, -23777.72, -19220.62, -25078.16, -23690.93, -26933.25, -26556.35, 0.000, 0.000, 0.000, 10:31:23.598, 1583739083598
103, -30152.26, -34259.32, -23757.58, -19181.53, -24967.48, -23657.22, -26832.46, -26516.63, 0.000, 0.000, 0.000, 10:31:23.598, 1583739083598
104, -29465.97, -34188.60, -23582.32, -19027.84, -24135.03, -23567.54, -26457.92, -26079.72, 0.000, 0.000, 0.000, 10:31:23.598, 1583739083598
105, -29290.31, -34202.91, -23513.97, -18931.19, -23806.24, -23511.60, -26409.52, -25905.09, 0.000, 0.000, 0.000, 10:31:24.051, 1583739084051
106, -29833.25, -34262.38, -23645.78, -19042.41, -24430.66, -23584.38, -26723.50, -26221.79, 0.000, -0.020, 0.968, 10:31:24.051, 1583739084051
107, -30265.24, -34273.80, -23785.00, -19238.08, -25081.07, -23702.35, -26937.45, -26563.68, 0.000, 0.000, 0.000, 10:31:24.051, 1583739084051
108, -30149.51, -34256.04, -23774.16, -19195.97, -24974.23, -23664.73, -26842.52, -26524.01, 0.000, 0.000, 0.000, 10:31:24.052, 1583739084052
109, -29464.43, -34193.90, -23603.93, -19041.61, -24148.67, -23575.99, -26466.83, -26089.04, 0.000, 0.000, 0.000, 10:31:24.052, 1583739084052
110, -29284.72, -34207.78, -23534.20, -18947.62, -23819.34, -23524.32, -26414.93, -25914.39, 0.000, 0.000, 0.000, 10:31:24.052, 1583739084052
111, -29828.25, -34264.35, -23651.07, -19050.86, -24432.78, -23592.53, -26728.26, -26229.26, 0.000, 0.000, 0.000, 10:31:24.052, 1583739084052
112, -30260.82, -34275.86, -23778.59, -19231.22, -25074.77, -23700.98, -26934.57, -26565.25, 0.000, 0.000, 0.000, 10:31:24.052, 1583739084052
113, -30156.28, -34258.90, -23775.55, -19199.92, -24982.59, -23672.78, -26844.91, -26535.95, 0.000, 0.000, 0.000, 10:31:24.052, 1583739084052
114, -29474.13, -34192.56, -23613.30, -19051.04, -24164.58, -23587.04, -26475.84, -26102.84, 0.000, 0.000, 0.000, 10:31:24.053, 1583739084053
115, -29282.06, -34199.33, -23537.32, -18945.72, -23822.24, -23525.23, -26418.02, -25917.83, 0.000, 0.000, 0.000, 10:31:24.059, 1583739084059
116, -29821.67, -34259.32, -23663.19, -19051.73, -24438.81, -23596.38, -26734.67, -26232.25, 0.002, -0.020, 0.970, 10:31:24.059, 1583739084059
117, -30256.91, -34268.82, -23796.54, -19240.60, -25087.11, -23710.17, -26945.72, -26569.25, 0.000, 0.000, 0.000, 10:31:24.059, 1583739084059
118, -30156.30, -34259.59, -23778.43, -19196.82, -24989.94, -23672.35, -26850.35, -26532.15, 0.000, 0.000, 0.000, 10:31:24.059, 1583739084059
119, -29478.35, -34196.85, -23605.47, -19038.90, -24162.14, -23577.98, -26473.18, -26093.92, 0.000, 0.000, 0.000, 10:31:24.060, 1583739084060
120, -29287.00, -34206.17, -23538.40, -18942.59, -23819.92, -23523.06, -26418.22, -25911.57, 0.000, 0.000, 0.000, 10:31:24.060, 1583739084060
121, -29824.31, -34265.07, -23669.38, -19053.95, -24435.84, -23598.12, -26735.72, -26224.79, 0.000, 0.000, 0.000, 10:31:24.060, 1583739084060
122, -30263.37, -34277.54, -23800.16, -19238.23, -25082.66, -23709.43, -26948.09, -26561.78, 0.000, 0.000, 0.000, 10:31:24.060, 1583739084060
123, -30164.37, -34257.13, -23783.71, -19197.51, -24990.17, -23672.62, -26855.89, -26531.10, 0.000, 0.000, 0.000, 10:31:24.060, 1583739084060
124, -29476.79, -34184.55, -23611.11, -19035.13, -24164.89, -23574.74, -26476.13, -26089.67, 0.000, 0.000, 0.000, 10:31:24.060, 1583739084060
125, -29277.07, -34196.80, -23537.64, -18933.65, -23813.37, -23513.39, -26411.00, -25897.71, 0.000, 0.000, 0.000, 10:31:24.060, 1583739084060
126, -29817.23, -34263.23, -23656.48, -19039.17, -24418.81, -23582.61, -26721.76, -26209.92, 0.004, -0.020, 0.968, 10:31:24.061, 1583739084061
127, -30260.51, -34276.38, -23791.87, -19238.06, -25075.82, -23703.26, -26937.74, -26557.31, 0.000, 0.000, 0.000, 10:31:24.061, 1583739084061
128, -30164.51, -34251.99, -23778.81, -19204.89, -24995.04, -23673.22, -26849.83, -26533.46, 0.000, 0.000, 0.000, 10:31:24.061, 1583739084061
129, -29478.80, -34183.46, -23599.64, -19038.97, -24164.76, -23576.33, -26469.74, -26094.88, 0.000, 0.000, 0.000, 10:31:24.061, 1583739084061
130, -29273.65, -34196.56, -23518.66, -18927.57, -23802.73, -23511.35, -26401.25, -25900.17, 0.000, 0.000, 0.000, 10:31:24.061, 1583739084061
131, -29811.21, -34259.95, -23644.19, -19037.07, -24407.25, -23582.90, -26714.16, -26211.35, 0.000, 0.000, 0.000, 10:31:24.061, 1583739084061
132, -30256.57, -34274.21, -23791.29, -19240.58, -25072.33, -23706.08, -26937.12, -26560.13, 0.000, 0.000, 0.000, 10:31:24.062, 1583739084062
133, -30168.42, -34262.88, -23785.45, -19204.35, -25002.35, -23675.08, -26857.92, -26539.59, 0.000, 0.000, 0.000, 10:31:24.062, 1583739084062
134, -29485.91, -34191.06, -23604.80, -19038.08, -24175.13, -23578.03, -26479.62, -26102.05, 0.000, 0.000, 0.000, 10:31:24.062, 1583739084062
135, -29272.18, -34194.57, -23526.13, -18935.08, -23807.18, -23519.64, -26407.02, -25905.31, 0.000, 0.000, 0.000, 10:31:24.062, 1583739084062
136, -29808.38, -34261.85, -23650.69, -19046.46, -24413.83, -23592.42, -26719.19, -26216.56, -0.004, -0.022, 0.966, 10:31:24.062, 1583739084062
137, -30255.86, -34277.27, -23790.17, -19245.70, -25079.06, -23712.14, -26939.53, -26564.22, 0.000, 0.000, 0.000, 10:31:24.062, 1583739084062
138, -30169.04, -34251.50, -23781.85, -19211.01, -25006.08, -23678.48, -26855.82, -26543.75, 0.000, 0.000, 0.000, 10:31:24.062, 1583739084062
139, -29491.54, -34189.94, -23614.73, -19053.01, -24185.68, -23586.74, -26481.65, -26111.06, 0.000, 0.000, 0.000, 10:31:24.063, 1583739084063
140, -29271.84, -34197.36, -23525.19, -18938.21, -23803.65, -23518.01, -26403.00, -25903.08, 0.000, 0.000, 0.000, 10:31:24.063, 1583739084063
141, -29807.19, -34262.56, -23639.81, -19033.90, -24397.73, -23581.43, -26711.65, -26204.13, 0.000, 0.000, 0.000, 10:31:24.063, 1583739084063
142, -30262.67, -34279.77, -23789.94, -19236.47, -25068.29, -23705.30, -26936.44, -26555.73, 0.000, 0.000, 0.000, 10:31:24.063, 1583739084063
143, -30179.53, -34260.24, -23782.26, -19208.33, -25003.71, -23674.65, -26855.44, -26539.83, 0.000, 0.000, 0.000, 10:31:24.063, 1583739084063
144, -29496.88, -34192.67, -23601.36, -19048.89, -24183.07, -23578.72, -26477.18, -26104.29, 0.000, 0.000, 0.000, 10:31:24.063, 1583739084063
145, -29271.42, -34197.74, -23517.63, -18932.82, -23800.25, -23509.03, -26399.73, -25893.91, 0.000, 0.000, 0.000, 10:31:24.064, 1583739084064
146, -29800.02, -34259.68, -23638.29, -19024.37, -24392.17, -23569.18, -26710.24, -26192.53, 0.000, -0.022, 0.970, 10:31:24.064, 1583739084064
147, -30253.13, -34275.82, -23788.49, -19229.00, -25068.08, -23694.53, -26937.63, -26545.13, 0.000, 0.000, 0.000, 10:31:24.064, 1583739084064
148, -30176.91, -34256.21, -23786.10, -19205.51, -25015.71, -23669.63, -26863.26, -26534.43, 0.000, 0.000, 0.000, 10:31:24.064, 1583739084064
149, -29497.95, -34191.24, -23603.38, -19042.30, -24191.31, -23574.09, -26485.01, -26100.91, 0.000, 0.000, 0.000, 10:31:24.064, 1583739084064
150, -29268.27, -34199.06, -23522.66, -18933.67, -23802.69, -23512.34, -26403.24, -25893.80, 0.000, 0.000, 0.000, 10:31:24.064, 1583739084064
151, -29798.21, -34262.72, -23646.45, -19034.88, -24396.57, -23579.35, -26713.80, -26198.39, 0.000, 0.000, 0.000, 10:31:24.065, 1583739084065
152, -30249.44, -34273.18, -23787.89, -19240.00, -25067.03, -23704.29, -26935.21, -26551.57, 0.000, 0.000, 0.000, 10:31:24.065, 1583739084065
153, -30178.38, -34256.26, -23781.00, -19212.80, -25012.38, -23674.95, -26857.01, -26542.45, 0.000, 0.000, 0.000, 10:31:24.065, 1583739084065
154, -29500.97, -34188.94, -23605.99, -19047.84, -24191.58, -23577.96, -26480.31, -26109.65, 0.000, 0.000, 0.000, 10:31:24.065, 1583739084065
155, -29263.62, -34192.47, -23522.62, -18937.49, -23797.61, -23514.41, -26394.84, -25897.36, 0.000, 0.000, 0.000, 10:31:24.065, 1583739084065
156, -29795.59, -34261.18, -23648.50, -19040.98, -24389.60, -23584.87, -26709.62, -26201.88, -0.004, -0.020, 0.968, 10:31:24.065, 1583739084065
157, -30249.51, -34278.21, -23785.70, -19242.59, -25060.98, -23706.82, -26933.67, -26552.73, 0.000, 0.000, 0.000, 10:31:24.065, 1583739084065
158, -30182.03, -34266.45, -23777.43, -19215.35, -25013.81, -23677.02, -26859.62, -26545.38, 0.000, 0.000, 0.000, 10:31:24.065, 1583739084065
159, -29506.69, -34195.24, -23605.27, -19056.72, -24200.05, -23583.03, -26483.78, -26116.80, 0.000, 0.000, 0.000, 10:31:24.066, 1583739084066
160, -29265.52, -34195.17, -23519.26, -18941.27, -23798.39, -23514.97, -26394.50, -25900.62, 0.000, 0.000, 0.000, 10:31:24.066, 1583739084066
161, -29793.69, -34262.16, -23641.86, -19036.51, -24382.82, -23580.33, -26707.76, -26200.92, 0.000, 0.000, 0.000, 10:31:24.066, 1583739084066
162, -30249.71, -34278.90, -23781.05, -19239.84, -25057.98, -23705.19, -26930.61, -26553.85, 0.000, 0.000, 0.000, 10:31:24.066, 1583739084066
163, -30190.95, -34267.55, -23783.39, -19219.30, -25019.89, -23682.52, -26861.83, -26553.74, 0.000, 0.000, 0.000, 10:31:24.066, 1583739084066
164, -29520.15, -34203.73, -23612.58, -19064.61, -24210.38, -23591.93, -26491.44, -26128.94, 0.000, 0.000, 0.000, 10:31:24.066, 1583739084066
165, -29272.31, -34203.98, -23521.21, -18948.74, -23801.84, -23523.38, -26401.19, -25907.15, 0.000, 0.000, 0.000, 10:31:24.066, 1583739084066
166, -29792.01, -34267.86, -23637.82, -19031.95, -24371.94, -23577.94, -26704.43, -26194.25, 0.000, 0.000, 0.000, 10:31:24.066, 1583739084066
167, -30250.80, -34284.13, -23785.03, -19236.63, -25052.37, -23703.11, -26931.19, -26548.71, -0.004, -0.020, 0.964, 10:31:24.067, 1583739084067
168, -30194.17, -34267.17, -23777.65, -19204.15, -25017.81, -23671.99, -26860.36, -26545.74, 0.000, 0.000, 0.000, 10:31:24.067, 1583739084067
169, -29523.59, -34197.16, -23605.05, -19046.59, -24207.83, -23579.30, -26487.55, -26119.38, 0.000, 0.000, 0.000, 10:31:24.067, 1583739084067
170, -29270.26, -34198.48, -23520.16, -18935.91, -23798.51, -23513.30, -26396.00, -25898.67, 0.000, 0.000, 0.000, 10:31:24.067, 1583739084067
171, -29788.95, -34261.18, -23640.79, -19028.75, -24377.06, -23575.10, -26706.51, -26192.47, 0.000, 0.000, 0.000, 10:31:24.067, 1583739084067
172, -30249.84, -34278.05, -23786.37, -19234.41, -25061.22, -23702.93, -26938.95, -26551.55, 0.000, 0.000, 0.000, 10:31:24.067, 1583739084067
173, -30196.63, -34262.70, -23790.82, -19216.26, -25036.21, -23681.20, -26875.89, -26556.84, 0.000, 0.000, 0.000, 10:31:24.067, 1583739084067
174, -29523.41, -34192.82, -23625.57, -19066.15, -24230.16, -23594.10, -26505.35, -26133.37, 0.000, 0.000, 0.000, 10:31:24.067, 1583739084067
175, -29261.49, -34190.81, -23527.06, -18944.06, -23801.34, -23522.01, -26404.25, -25902.79, 0.000, 0.000, 0.000, 10:31:24.068, 1583739084068
176, -29781.66, -34259.88, -23648.01, -19032.26, -24374.67, -23581.85, -26714.74, -26193.88, 0.000, 0.000, 0.000, 10:31:24.068, 1583739084068
177, -30241.04, -34275.73, -23791.51, -19242.55, -25059.30, -23710.64, -26944.07, -26551.84, 0.000, -0.024, 0.964, 10:31:24.068, 1583739084068
178, -30191.17, -34258.65, -23786.01, -19225.05, -25034.45, -23687.30, -26879.63, -26559.59, 0.000, 0.000, 0.000, 10:31:24.068, 1583739084068
179, -29523.72, -34189.83, -23622.46, -19069.08, -24234.03, -23597.56, -26507.67, -26135.74, 0.000, 0.000, 0.000, 10:31:24.068, 1583739084068
180, -29260.27, -34188.45, -23527.60, -18953.50, -23805.95, -23529.95, -26405.19, -25904.17, 0.000, 0.000, 0.000, 10:31:24.068, 1583739084068
181, -29778.13, -34260.06, -23640.63, -19038.59, -24366.55, -23584.91, -26709.60, -26189.72, 0.000, 0.000, 0.000, 10:31:24.068, 1583739084068
182, -30240.61, -34279.39, -23785.14, -19243.15, -25047.25, -23708.49, -26940.04, -26544.57, 0.000, 0.000, 0.000, 10:31:24.069, 1583739084069
183, -30200.38, -34261.11, -23792.45, -19231.53, -25035.58, -23689.34, -26881.37, -26557.87, 0.000, 0.000, 0.000, 10:31:24.069, 1583739084069
184, -29530.03, -34188.20, -23623.49, -19070.20, -24230.07, -23593.36, -26507.02, -26132.88, 0.000, 0.000, 0.000, 10:31:24.069, 1583739084069
185, -29262.17, -34195.73, -23535.47, -18960.38, -23800.81, -23529.28, -26405.39, -25905.20, 0.000, 0.000, 0.000, 10:31:24.069, 1583739084069
186, -29775.41, -34261.18, -23642.82, -19042.03, -24357.84, -23579.39, -26705.42, -26186.77, 0.000, 0.000, 0.000, 10:31:24.069, 1583739084069
187, -30243.59, -34278.01, -23779.33, -19231.57, -25040.48, -23695.73, -26934.86, -26538.63, 0.002, -0.024, 0.968, 10:31:24.069, 1583739084069
188, -30204.34, -34263.90, -23780.04, -19214.47, -25029.48, -23672.11, -26873.30, -26548.98, 0.000, 0.000, 0.000, 10:31:24.069, 1583739084069
189, -29540.47, -34198.86, -23619.51, -19068.36, -24233.74, -23586.19, -26505.93, -26131.96, 0.000, 0.000, 0.000, 10:31:24.069, 1583739084069
190, -29265.72, -34201.10, -23524.29, -18949.79, -23795.71, -23517.50, -26394.59, -25896.08, 0.000, 0.000, 0.000, 10:31:24.070, 1583739084070
191, -29773.80, -34263.26, -23628.32, -19026.50, -24346.08, -23566.81, -26692.25, -26175.10, 0.000, 0.000, 0.000, 10:31:24.070, 1583739084070
192, -30241.91, -34277.43, -23768.58, -19226.86, -25034.82, -23690.23, -26924.69, -26533.89, 0.000, 0.000, 0.000, 10:31:24.070, 1583739084070
193, -30205.01, -34263.17, -23775.21, -19212.31, -25030.85, -23671.03, -26866.66, -26550.94, 0.000, 0.000, 0.000, 10:31:24.070, 1583739084070
194, -29536.22, -34189.29, -23608.43, -19054.95, -24231.86, -23578.65, -26494.91, -26128.05, 0.000, 0.000, 0.000, 10:31:24.070, 1583739084070
195, -29253.00, -34190.08, -23512.18, -18936.51, -23787.60, -23509.32, -26385.54, -25888.73, 0.000, 0.000, 0.000, 10:31:24.070, 1583739084070
196, -29762.04, -34256.04, -23629.55, -19020.80, -24345.03, -23566.05, -26691.11, -26172.80, 0.000, 0.000, 0.000, 10:31:24.070, 1583739084070
197, -30239.41, -34274.79, -23776.89, -19229.05, -25040.05, -23694.86, -26928.42, -26534.63, 0.002, -0.024, 0.964, 10:31:24.070, 1583739084070
198, -30207.29, -34262.68, -23786.32, -19220.00, -25045.29, -23677.20, -26875.67, -26553.56, 0.000, 0.000, 0.000, 10:31:24.071, 1583739084071
199, -29543.75, -34194.91, -23625.26, -19067.47, -24252.98, -23587.66, -26507.18, -26135.83, 0.000, 0.000, 0.000, 10:31:24.071, 1583739084071
200, -29258.28, -34193.50, -23525.30, -18946.57, -23800.18, -23517.30, -26389.54, -25891.28, 0.000, 0.000, 0.000, 10:31:24.071, 1583739084071
201, -29764.88, -34261.65, -23631.43, -19019.79, -24343.40, -23566.38, -26685.95, -26167.16, 0.000, 0.000, 0.000, 10:31:24.071, 1583739084071
202, -30242.45, -34284.54, -23780.78, -19231.24, -25038.58, -23697.34, -26925.65, -26533.26, 0.000, 0.000, 0.000, 10:31:24.071, 1583739084071
203, -30212.88, -34268.31, -23788.18, -19222.63, -25046.02, -23679.21, -26874.17, -26556.91, 0.000, 0.000, 0.000, 10:31:24.072, 1583739084072
204, -29552.27, -34202.13, -23627.13, -19069.52, -24254.23, -23589.92, -26505.88, -26143.14, 0.000, 0.000, 0.000, 10:31:24.072, 1583739084072
205, -29262.50, -34199.89, -23532.74, -18950.17, -23799.24, -23521.86, -26390.35, -25899.61, 0.000, 0.000, 0.000, 10:31:24.072, 1583739084072
206, -29766.53, -34263.28, -23637.35, -19019.14, -24341.09, -23568.24, -26688.68, -26172.04, 0.000, 0.000, 0.000, 10:31:24.072, 1583739084072
207, -30234.89, -34272.98, -23767.75, -19221.81, -25028.95, -23689.18, -26916.26, -26529.42, 0.002, -0.022, 0.966, 10:31:24.072, 1583739084072
208, -30212.72, -34254.74, -23773.90, -19213.80, -25039.63, -23671.08, -26864.85, -26555.37, 0.000, 0.000, 0.000, 10:31:24.073, 1583739084073
209, -29551.80, -34187.13, -23608.11, -19055.85, -24245.47, -23574.12, -26494.35, -26134.02, 0.000, 0.000, 0.000, 10:31:24.073, 1583739084073
210, -29253.65, -34190.37, -23513.39, -18937.78, -23784.07, -23505.14, -26375.86, -25883.79, 0.000, 0.000, 0.000, 10:31:24.073, 1583739084073
211, -29753.12, -34255.99, -23626.06, -19013.06, -24323.77, -23557.26, -26676.47, -26157.84, 0.000, 0.000, 0.000, 10:31:24.073, 1583739084073
212, -30230.49, -34272.87, -23770.34, -19221.43, -25023.04, -23686.23, -26913.96, -26523.83, 0.000, 0.000, 0.000, 10:31:24.073, 1583739084073
213, -30215.49, -34256.48, -23778.77, -19219.15, -25047.12, -23673.22, -26872.54, -26558.74, 0.000, 0.000, 0.000, 10:31:24.073, 1583739084073
214, -29555.82, -34192.31, -23611.69, -19062.73, -24258.62, -23579.35, -26504.41, -26141.44, 0.000, 0.000, 0.000, 10:31:24.073, 1583739084073
215, -29253.69, -34193.86, -23515.85, -18946.12, -23792.07, -23512.22, -26383.04, -25889.89, 0.000, 0.000, 0.000, 10:31:24.074, 1583739084074
216, -29753.79, -34258.27, -23628.59, -19022.81, -24329.29, -23566.36, -26683.36, -26164.82, 0.000, 0.000, 0.000, 10:31:24.074, 1583739084074
217, -30234.69, -34277.32, -23779.48, -19231.93, -25031.92, -23696.69, -26927.01, -26531.43, 0.006, -0.016, 0.972, 10:31:24.074, 1583739084074
218, -30224.97, -34267.37, -23791.46, -19232.92, -25062.50, -23686.30, -26887.45, -26568.15, 0.000, 0.000, 0.000, 10:31:24.074, 1583739084074
219, -29562.57, -34192.85, -23626.31, -19072.56, -24273.44, -23590.19, -26515.29, -26150.22, 0.000, 0.000, 0.000, 10:31:24.074, 1583739084074
220, -29251.86, -34187.66, -23517.70, -18946.95, -23794.97, -23517.14, -26384.27, -25892.60, 0.000, 0.000, 0.000, 10:31:24.075, 1583739084075
221, -29749.86, -34254.96, -23627.85, -19022.03, -24327.95, -23569.29, -26683.27, -26163.65, 0.000, 0.000, 0.000, 10:31:24.075, 1583739084075
222, -30231.11, -34271.53, -23777.23, -19226.84, -25032.43, -23697.90, -26923.35, -26527.05, 0.000, 0.000, 0.000, 10:31:24.075, 1583739084075
223, -30224.16, -34256.80, -23795.60, -19229.34, -25069.36, -23684.82, -26882.31, -26562.72, 0.000, 0.000, 0.000, 10:31:24.075, 1583739084075
224, -29572.92, -34196.80, -23634.44, -19084.77, -24285.39, -23596.94, -26516.77, -26152.97, 0.000, 0.000, 0.000, 10:31:24.075, 1583739084075
225, -29255.33, -34189.79, -23521.90, -18952.76, -23797.83, -23517.92, -26381.25, -25886.92, 0.000, 0.000, 0.000, 10:31:24.531, 1583739084531
226, -29748.76, -34255.30, -23620.99, -19014.11, -24315.54, -23556.30, -26674.62, -26148.81, 0.000, 0.000, 0.000, 10:31:24.532, 1583739084532
227, -30227.31, -34270.52, -23763.90, -19213.69, -25018.80, -23679.64, -26912.75, -26511.60, 0.008, -0.022, 0.974, 10:31:24.532, 1583739084532
228, -30222.04, -34258.14, -23780.91, -19206.81, -25057.76, -23665.78, -26875.27, -26549.42, 0.000, 0.000, 0.000, 10:31:24.532, 1583739084532
229, -29568.65, -34189.72, -23620.12, -19056.22, -24276.25, -23574.07, -26508.54, -26139.45, 0.000, 0.000, 0.000, 10:31:24.532, 1583739084532
230, -29247.64, -34183.95, -23511.24, -18937.36, -23785.23, -23504.47, -26372.40, -25878.94, 0.000, 0.000, 0.000, 10:31:24.532, 1583739084532
231, -29743.04, -34254.41, -23617.48, -19017.15, -24308.64, -23558.92, -26671.91, -26149.46, 0.000, 0.000, 0.000, 10:31:24.532, 1583739084532
232, -30229.84, -34276.62, -23769.22, -19224.22, -25020.81, -23690.03, -26918.81, -26518.42, 0.000, 0.000, 0.000, 10:31:24.532, 1583739084532
233, -30234.78, -34265.47, -23789.01, -19218.05, -25067.41, -23676.02, -26884.52, -26559.08, 0.000, 0.000, 0.000, 10:31:24.533, 1583739084533
234, -29582.18, -34196.47, -23630.42, -19066.66, -24286.76, -23585.47, -26518.60, -26150.33, 0.000, 0.000, 0.000, 10:31:24.533, 1583739084533
235, -29254.86, -34192.40, -23523.31, -18947.73, -23791.67, -23516.09, -26380.69, -25888.24, 0.000, 0.000, 0.000, 10:31:24.533, 1583739084533
236, -29745.50, -34263.19, -23622.98, -19014.47, -24302.63, -23560.68, -26673.36, -26151.56, 0.000, 0.000, 0.000, 10:31:24.533, 1583739084533
237, -30229.86, -34274.54, -23765.96, -19221.07, -25006.37, -23687.93, -26911.14, -26517.26, 0.006, -0.022, 0.972, 10:31:24.533, 1583739084533
238, -30236.43, -34263.68, -23785.52, -19232.16, -25063.70, -23684.36, -26879.60, -26569.21, 0.000, 0.000, 0.000, 10:31:24.533, 1583739084533
239, -29581.35, -34201.95, -23613.63, -19072.65, -24279.74, -23587.17, -26509.59, -26158.45, 0.000, 0.000, 0.000, 10:31:24.537, 1583739084537
240, -29248.60, -34194.95, -23511.13, -18948.24, -23781.38, -23515.62, -26370.56, -25890.18, 0.000, 0.000, 0.000, 10:31:24.537, 1583739084537
241, -29736.04, -34259.41, -23613.63, -19013.00, -24290.71, -23560.59, -26664.11, -26148.86, 0.000, 0.000, 0.000, 10:31:24.537, 1583739084537
242, -30226.20, -34274.88, -23759.21, -19216.38, -25001.30, -23687.84, -26908.66, -26513.73, 0.000, 0.000, 0.000, 10:31:24.537, 1583739084537
243, -30233.77, -34265.83, -23772.85, -19210.97, -25056.33, -23670.85, -26875.27, -26557.25, 0.000, 0.000, 0.000, 10:31:24.537, 1583739084537
244, -29586.02, -34202.39, -23615.22, -19058.95, -24284.99, -23580.69, -26513.75, -26151.67, 0.000, 0.000, 0.000, 10:31:24.537, 1583739084537
245, -29242.36, -34188.15, -23507.37, -18935.08, -23779.15, -23506.68, -26368.89, -25878.07, 0.000, 0.000, 0.000, 10:31:24.538, 1583739084538
246, -29724.89, -34253.69, -23612.87, -19005.98, -24287.11, -23552.84, -26661.70, -26137.03, 0.000, 0.000, 0.000, 10:31:24.538, 1583739084538
247, -30216.70, -34275.15, -23764.87, -19217.09, -25006.08, -23686.95, -26912.48, -26509.64, 0.002, -0.024, 0.974, 10:31:24.538, 1583739084538
248, -30230.29, -34265.31, -23786.39, -19224.06, -25072.76, -23681.27, -26886.82, -26563.04, 0.000, 0.000, 0.000, 10:31:24.538, 1583739084538
249, -29587.79, -34200.52, -23631.07, -19076.21, -24304.57, -23594.14, -26527.79, -26160.75, 0.000, 0.000, 0.000, 10:31:24.538, 1583739084538
250, -29243.32, -34188.45, -23518.88, -18946.50, -23794.86, -23517.25, -26380.85, -25883.97, 0.000, 0.000, 0.000, 10:31:24.538, 1583739084538
251, -29722.66, -34254.36, -23613.70, -19003.79, -24291.85, -23555.94, -26668.47, -26137.73, 0.000, 0.000, 0.000, 10:31:24.538, 1583739084538
252, -30217.17, -34273.65, -23769.89, -19215.73, -25007.67, -23688.76, -26916.08, -26509.30, 0.000, 0.000, 0.000, 10:31:24.539, 1583739084539
253, -30236.32, -34265.96, -23796.36, -19225.09, -25073.20, -23681.09, -26889.01, -26564.15, 0.000, 0.000, 0.000, 10:31:24.539, 1583739084539
254, -29590.02, -34199.42, -23625.44, -19065.54, -24297.22, -23582.21, -26519.70, -26156.64, 0.000, 0.000, 0.000, 10:31:24.539, 1583739084539
255, -29240.71, -34189.29, -23519.94, -18945.09, -23786.03, -23512.29, -26372.96, -25881.58, 0.000, 0.000, 0.000, 10:31:24.539, 1583739084539
0, -29712.22, -34249.78, -23620.12, -19005.04, -24279.04, -23551.52, -26659.30, -26129.72, 0.000, 0.000, 0.000, 10:31:24.539, 1583739084539
1, -30207.58, -34271.44, -23766.05, -19217.38, -24997.32, -23684.44, -26904.28, -26500.43, 0.000, -0.028, 0.968, 10:31:24.539, 1583739084539
2, -30231.34, -34267.68, -23787.20, -19230.86, -25072.17, -23680.40, -26880.92, -26559.79, 0.000, 0.000, 0.000, 10:31:24.540, 1583739084540
3, -29585.48, -34195.89, -23622.20, -19072.27, -24300.75, -23581.78, -26515.94, -26152.61, 0.000, 0.000, 0.000, 10:31:24.540, 1583739084540
4, -29234.05, -34184.55, -23506.72, -18945.96, -23780.18, -23507.82, -26362.00, -25873.64, 0.000, 0.000, 0.000, 10:31:24.540, 1583739084540
5, -29709.07, -34254.16, -23607.60, -18999.18, -24270.19, -23546.09, -26651.35, -26122.35, 0.000, 0.000, 0.000, 10:31:24.540, 1583739084540
6, -30203.98, -34275.62, -23757.76, -19212.44, -24992.29, -23681.45, -26906.34, -26499.60, 0.000, 0.000, 0.000, 10:31:24.540, 1583739084540
7, -30231.40, -34266.65, -23786.44, -19228.24, -25078.84, -23681.20, -26889.75, -26567.53, 0.000, 0.000, 0.000, 10:31:24.540, 1583739084540
8, -29589.82, -34197.50, -23619.89, -19067.54, -24309.89, -23584.26, -26524.57, -26164.57, 0.000, 0.000, 0.000, 10:31:24.540, 1583739084540
9, -29230.40, -34188.51, -23503.13, -18941.63, -23782.77, -23510.44, -26365.49, -25880.21, 0.000, 0.000, 0.000, 10:31:24.540, 1583739084540
10, -29709.42, -34257.55, -23604.04, -19003.41, -24268.09, -23553.06, -26653.25, -26131.33, 0.000, 0.000, 0.000, 10:31:24.541, 1583739084541
11, -30212.20, -34281.25, -23758.96, -19219.68, -24987.33, -23689.99, -26905.04, -26509.71, 0.000, 0.000, 0.000, 10:31:24.541, 1583739084541
12, -30241.19, -34272.84, -23781.38, -19228.47, -25070.36, -23682.92, -26882.42, -26570.21, -0.002, -0.022, 0.966, 10:31:24.541, 1583739084541
13, -29604.17, -34206.46, -23620.59, -19074.13, -24308.06, -23589.87, -26522.65, -26170.67, 0.000, 0.000, 0.000, 10:31:24.541, 1583739084541
14, -29240.51, -34197.32, -23510.95, -18948.06, -23779.82, -23517.81, -26366.50, -25886.49, 0.000, 0.000, 0.000, 10:31:24.541, 1583739084541
15, -29712.64, -34265.80, -23618.26, -19014.83, -24268.90, -23564.64, -26659.53, -26139.40, 0.000, 0.000, 0.000, 10:31:24.541, 1583739084541
16, -30206.66, -34280.15, -23765.09, -19216.96, -24985.76, -23690.75, -26909.91, -26508.54, 0.000, 0.000, 0.000, 10:31:24.541, 1583739084541
17, -30240.90, -34273.36, -23792.92, -19224.20, -25080.42, -23683.55, -26893.30, -26571.46, 0.000, 0.000, 0.000, 10:31:24.541, 1583739084541
18, -29608.26, -34207.11, -23641.69, -19073.99, -24326.45, -23593.81, -26538.40, -26173.98, 0.000, 0.000, 0.000, 10:31:24.541, 1583739084541
19, -29237.11, -34191.39, -23521.68, -18944.91, -23785.94, -23517.03, -26374.43, -25882.40, 0.000, 0.000, 0.000, 10:31:24.541, 1583739084541
20, -29699.37, -34254.79, -23610.08, -18998.27, -24257.61, -23548.84, -26653.61, -26120.52, 0.000, 0.000, 0.000, 10:31:24.542, 1583739084542
21, -30203.96, -34275.15, -23760.13, -19207.61, -24980.33, -23679.88, -26905.89, -26492.72, 0.000, 0.000, 0.000, 10:31:24.542, 1583739084542
22, -30243.90, -34265.31, -23787.87, -19227.64, -25080.02, -23679.59, -26891.34, -26564.69, -0.002, -0.018, 0.968, 10:31:24.542, 1583739084542
23, -29609.49, -34198.39, -23633.77, -19075.34, -24325.71, -23585.54, -26534.00, -26168.93, 0.000, 0.000, 0.000, 10:31:24.542, 1583739084542
24, -29230.58, -34183.39, -23522.24, -18948.06, -23786.64, -23510.77, -26369.20, -25876.77, 0.000, 0.000, 0.000, 10:31:24.542, 1583739084542
25, -29691.43, -34247.39, -23614.75, -18990.69, -24253.99, -23540.88, -26647.35, -26114.17, 0.000, 0.000, 0.000, 10:31:24.542, 1583739084542
26, -30197.36, -34262.47, -23753.35, -19192.12, -24970.81, -23667.50, -26896.43, -26485.32, 0.000, 0.000, 0.000, 10:31:24.542, 1583739084542
27, -30245.08, -34260.42, -23781.83, -19215.48, -25074.74, -23668.62, -26886.13, -26561.34, 0.000, 0.000, 0.000, 10:31:24.542, 1583739084542
28, -29615.41, -34201.50, -23627.67, -19066.15, -24324.80, -23578.99, -26530.34, -26168.91, 0.000, 0.000, 0.000, 10:31:24.542, 1583739084542
29, -29232.75, -34187.77, -23511.84, -18942.19, -23778.30, -23508.07, -26363.90, -25875.85, 0.000, 0.000, 0.000, 10:31:24.543, 1583739084543
30, -29691.88, -34252.48, -23605.56, -18997.35, -24243.75, -23545.57, -26645.40, -26114.68, 0.000, 0.000, 0.000, 10:31:24.543, 1583739084543
31, -30201.25, -34274.90, -23757.60, -19207.35, -24971.17, -23679.64, -26902.29, -26492.96, 0.000, 0.000, 0.000, 10:31:24.543, 1583739084543
32, -30246.07, -34267.50, -23780.96, -19216.82, -25077.14, -23675.19, -26888.19, -26566.39, 0.000, -0.020, 0.970, 10:31:24.543, 1583739084543
33, -29618.27, -34198.48, -23623.71, -19068.88, -24328.96, -23586.97, -26532.17, -26177.27, 0.000, 0.000, 0.000, 10:31:24.543, 1583739084543
34, -29229.76, -34180.98, -23501.38, -18938.45, -23774.07, -23510.59, -26358.14, -25878.78, 0.000, 0.000, 0.000, 10:31:24.544, 1583739084544
35, -29686.07, -34248.84, -23598.28, -18993.64, -24237.38, -23548.97, -26639.63, -26117.50, 0.000, 0.000, 0.000, 10:31:24.544, 1583739084544
36, -30196.58, -34273.88, -23752.88, -19211.90, -24969.69, -23689.43, -26897.96, -26500.36, 0.000, 0.000, 0.000, 10:31:24.544, 1583739084544
37, -30254.36, -34270.27, -23778.43, -19230.86, -25084.56, -23688.89, -26890.40, -26580.40, 0.000, 0.000, 0.000, 10:31:24.544, 1583739084544
38, -29633.52, -34209.84, -23625.21, -19080.92, -24335.95, -23596.89, -26535.88, -26190.50, 0.000, 0.000, 0.000, 10:31:24.544, 1583739084544
39, -29236.95, -34189.52, -23509.16, -18947.77, -23776.96, -23517.39, -26359.84, -25885.31, 0.000, 0.000, 0.000, 10:31:24.545, 1583739084545
40, -29685.26, -34251.34, -23600.13, -18992.86, -24233.09, -23546.40, -26636.37, -26113.45, 0.000, 0.000, 0.000, 10:31:24.545, 1583739084545
41, -30199.53, -34277.23, -23754.03, -19208.24, -24968.26, -23684.62, -26897.48, -26494.91, 0.000, 0.000, 0.000, 10:31:24.545, 1583739084545
42, -30257.02, -34273.29, -23786.44, -19228.06, -25090.53, -23685.16, -26894.65, -26575.26, 0.004, -0.018, 0.974, 10:31:24.545, 1583739084545
43, -29633.67, -34206.91, -23633.75, -19078.51, -24350.68, -23593.21, -26543.48, -26185.76, 0.000, 0.000, 0.000, 10:31:24.545, 1583739084545
44, -29233.29, -34188.94, -23510.62, -18952.36, -23785.59, -23518.04, -26367.99, -25881.35, 0.000, 0.000, 0.000, 10:31:24.545, 1583739084545
45, -29682.82, -34251.70, -23600.51, -18993.39, -24239.10, -23547.63, -26645.42, -26107.06, 0.000, 0.000, 0.000, 10:31:24.545, 1583739084545
46, -30197.92, -34279.73, -23758.45, -19205.51, -24971.95, -23683.10, -26904.99, -26486.01, 0.000, 0.000, 0.000, 10:31:24.545, 1583739084545
47, -30258.14, -34272.73, -23789.16, -19223.55, -25097.46, -23680.64, -26897.62, -26566.86, 0.000, 0.000, 0.000, 10:31:24.545, 1583739084545
48, -29634.70, -34204.56, -23628.41, -19064.70, -24350.24, -23582.41, -26539.21, -26175.93, 0.000, 0.000, 0.000, 10:31:24.545, 1583739084545
49, -29229.51, -34184.67, -23497.20, -18932.35, -23773.78, -23502.90, -26353.02, -25865.86, 0.000, 0.000, 0.000, 10:31:24.545, 1583739084545
50, -29675.20, -34251.16, -23587.21, -18982.08, -24216.48, -23536.50, -26625.75, -26094.57, 0.000, 0.000, 0.000, 10:31:24.546, 1583739084546
51, -30187.84, -34276.71, -23748.93, -19201.91, -24954.38, -23676.42, -26889.93, -26477.18, 0.000, 0.000, 0.000, 10:31:24.546, 1583739084546
52, -30252.50, -34268.78, -23778.25, -19224.94, -25085.94, -23677.83, -26887.34, -26563.64, 0.002, -0.016, 0.974, 10:31:24.546, 1583739084546
53, -29635.82, -34201.72, -23615.71, -19063.94, -24341.23, -23580.73, -26531.83, -26176.60, 0.000, 0.000, 0.000, 10:31:24.546, 1583739084546
54, -29229.42, -34174.12, -23495.75, -18935.28, -23767.19, -23506.08, -26348.26, -25869.21, 0.000, 0.000, 0.000, 10:31:24.546, 1583739084546
55, -29676.86, -34243.90, -23592.42, -18994.96, -24215.97, -23546.36, -26627.99, -26103.46, 0.000, 0.000, 0.000, 10:31:24.546, 1583739084546
56, -30190.10, -34275.89, -23741.17, -19209.27, -24950.07, -23682.83, -26889.06, -26486.28, 0.000, 0.000, 0.000, 10:31:24.546, 1583739084546
57, -30256.55, -34269.87, -23774.61, -19232.00, -25086.19, -23683.59, -26888.46, -26574.44, 0.000, 0.000, 0.000, 10:31:24.546, 1583739084546
58, -29640.38, -34203.09, -23620.52, -19078.04, -24350.30, -23587.15, -26534.76, -26185.45, 0.000, 0.000, 0.000, 10:31:24.546, 1583739084546
59, -29226.63, -34178.59, -23496.15, -18942.86, -23771.17, -23508.02, -26347.54, -25869.71, 0.000, 0.000, 0.000, 10:31:24.546, 1583739084546
60, -29663.13, -34243.34, -23584.26, -18981.32, -24208.68, -23533.68, -26618.83, -26089.20, 0.000, 0.000, 0.000, 10:31:24.546, 1583739084546
61, -30179.32, -34273.88, -23735.63, -19191.01, -24943.05, -23667.63, -26883.02, -26468.82, 0.000, 0.000, 0.000, 10:31:24.547, 1583739084547
62, -30257.22, -34270.27, -23778.86, -19226.28, -25092.36, -23679.66, -26891.45, -26567.28, 0.002, -0.014, 0.970, 10:31:24.547, 1583739084547
63, -29649.01, -34206.57, -23625.77, -19074.89, -24362.84, -23588.15, -26543.66, -26188.00, 0.000, 0.000, 0.000, 10:31:24.547, 1583739084547
64, -29229.40, -34177.38, -23495.08, -18934.38, -23772.26, -23505.41, -26350.36, -25867.99, 0.000, 0.000, 0.000, 10:31:24.547, 1583739084547
65, -29664.79, -34239.88, -23584.80, -18981.30, -24203.38, -23537.08, -26621.37, -26089.63, 0.000, 0.000, 0.000, 10:31:24.547, 1583739084547
66, -30184.42, -34275.77, -23742.63, -19201.76, -24944.90, -23677.76, -26887.52, -26475.66, 0.000, 0.000, 0.000, 10:31:24.547, 1583739084547
67, -30261.56, -34273.45, -23774.70, -19228.85, -25093.63, -23682.95, -26890.62, -26570.66, 0.000, 0.000, 0.000, 10:31:24.547, 1583739084547
68, -29657.68, -34207.22, -23625.79, -19078.78, -24367.18, -23591.93, -26546.34, -26193.49, 0.000, 0.000, 0.000, 10:31:24.547, 1583739084547
69, -29235.79, -34183.37, -23504.71, -18946.08, -23778.39, -23515.73, -26353.49, -25876.99, 0.000, 0.000, 0.000, 10:31:24.547, 1583739084547
70, -29665.35, -34250.74, -23586.57, -18987.49, -24203.56, -23543.61, -26617.93, -26093.49, 0.000, 0.000, 0.000, 10:31:24.547, 1583739084547
71, -30182.77, -34278.07, -23736.77, -19192.23, -24937.26, -23674.50, -26880.41, -26471.42, 0.000, 0.000, 0.000, 10:31:24.547, 1583739084547
72, -30264.73, -34267.26, -23777.05, -19217.78, -25092.74, -23677.18, -26888.19, -26567.04, 0.006, -0.020, 0.970, 10:31:24.548, 1583739084548
73, -29660.00, -34205.59, -23625.23, -19069.48, -24365.66, -23585.72, -26539.57, -26188.04, 0.000, 0.000, 0.000, 10:31:24.548, 1583739084548
74, -29233.73, -34183.13, -23499.55, -18940.76, -23770.99, -23510.73, -26345.82, -25868.52, 0.000, 0.000, 0.000, 10:31:24.548, 1583739084548
75, -29656.32, -34245.40, -23580.08, -18980.97, -24187.80, -23534.73, -26610.11, -26079.99, 0.000, 0.000, 0.000, 10:31:24.548, 1583739084548
76, -30174.16, -34270.39, -23737.57, -19193.17, -24929.26, -23667.08, -26875.45, -26458.90, 0.000, 0.000, 0.000, 10:31:24.548, 1583739084548
77, -30259.05, -34265.49, -23778.88, -19222.63, -25089.03, -23672.98, -26885.17, -26559.15, 0.000, 0.000, 0.000, 10:31:24.548, 1583739084548
78, -29655.60, -34204.92, -23625.66, -19070.62, -24368.63, -23580.44, -26539.88, -26184.53, 0.000, 0.000, 0.000, 10:31:24.548, 1583739084548
79, -29219.94, -34177.20, -23499.88, -18935.71, -23770.50, -23501.32, -26342.51, -25861.50, 0.000, 0.000, 0.000, 10:31:24.548, 1583739084548
80, -29644.02, -34236.77, -23582.90, -18969.68, -24185.84, -23523.94, -26609.24, -26070.78, 0.000, 0.000, 0.000, 10:31:24.548, 1583739084548
81, -30171.14, -34270.88, -23739.34, -19182.74, -24932.97, -23660.73, -26878.84, -26455.35, 0.000, 0.000, 0.000, 10:31:24.548, 1583739084548
82, -30257.53, -34260.91, -23782.97, -19222.10, -25102.06, -23673.60, -26891.67, -26562.79, 0.006, -0.020, 0.970, 10:31:24.548, 1583739084548
83, -29660.27, -34194.57, -23636.50, -19083.05, -24390.47, -23589.36, -26549.09, -26196.20, 0.000, 0.000, 0.000, 10:31:24.548, 1583739084548
84, -29227.97, -34178.57, -23509.79, -18951.60, -23789.63, -23514.08, -26350.07, -25876.48, 0.000, 0.000, 0.000, 10:31:24.549, 1583739084549
85, -29644.60, -34243.90, -23589.87, -18979.20, -24192.54, -23533.95, -26611.16, -26081.33, 0.000, 0.000, 0.000, 10:31:24.549, 1583739084549
86, -30166.00, -34268.66, -23745.53, -19194.67, -24935.00, -23671.28, -26878.91, -26464.51, 0.000, 0.000, 0.000, 10:31:24.549, 1583739084549
87, -30264.35, -34259.34, -23794.19, -19239.96, -25114.44, -23688.51, -26900.57, -26577.56, 0.000, 0.000, 0.000, 10:31:24.549, 1583739084549
88, -29668.41, -34196.96, -23647.12, -19095.63, -24401.06, -23600.18, -26558.63, -26208.18, 0.000, 0.000, 0.000, 10:31:24.549, 1583739084549
89, -29224.70, -34175.41, -23514.64, -18963.49, -23788.42, -23521.23, -26349.78, -25878.54, 0.000, 0.000, 0.000, 10:31:24.549, 1583739084549
90, -29644.20, -34243.61, -23589.23, -18991.96, -24183.74, -23541.62, -26608.68, -26080.78, 0.000, 0.000, 0.000, 10:31:25.011, 1583739085011
91, -30170.18, -34269.22, -23740.37, -19201.09, -24928.05, -23678.90, -26878.08, -26465.27, 0.000, 0.000, 0.000, 10:31:25.012, 1583739085012
92, -30270.83, -34267.35, -23786.44, -19239.46, -25111.11, -23693.21, -26897.15, -26580.36, 0.008, -0.016, 0.970, 10:31:25.012, 1583739085012
93, -29680.79, -34213.99, -23640.52, -19094.33, -24403.86, -23604.65, -26556.04, -26215.29, 0.000, 0.000, 0.000, 10:31:25.012, 1583739085012
94, -29233.35, -34188.91, -23508.54, -18960.83, -23788.25, -23523.76, -26347.68, -25884.82, 0.000, 0.000, 0.000, 10:31:25.012, 1583739085012
95, -29644.04, -34247.16, -23591.06, -18996.99, -24184.21, -23546.96, -26610.55, -26088.71, 0.000, 0.000, 0.000, 10:31:25.013, 1583739085013
96, -30169.71, -34275.71, -23736.70, -19204.78, -24927.96, -23681.92, -26881.59, -26471.77, 0.000, 0.000, 0.000, 10:31:25.013, 1583739085013
97, -30271.46, -34273.52, -23780.29, -19243.31, -25113.17, -23694.55, -26902.38, -26583.51, 0.000, 0.000, 0.000, 10:31:25.013, 1583739085013
98, -29684.35, -34210.89, -23641.28, -19098.65, -24413.18, -23604.60, -26564.09, -26218.01, 0.000, 0.000, 0.000, 10:31:25.013, 1583739085013
99, -29229.51, -34178.74, -23508.38, -18954.37, -23790.03, -23517.19, -26350.76, -25879.16, 0.000, 0.000, 0.000, 10:31:25.016, 1583739085016
100, -29639.64, -34242.89, -23590.61, -18981.50, -24178.93, -23534.31, -26609.28, -26075.77, 0.000, 0.000, 0.000, 10:31:25.017, 1583739085017
101, -30165.20, -34263.34, -23734.60, -19183.36, -24915.33, -23665.24, -26875.20, -26452.21, 0.000, 0.000, 0.000, 10:31:25.017, 1583739085017
102, -30272.20, -34258.43, -23779.17, -19222.92, -25107.45, -23677.02, -26897.71, -26566.61, 0.000, 0.000, 0.000, 10:31:25.017, 1583739085017
103, -29683.83, -34201.07, -23637.73, -19078.15, -24409.04, -23585.94, -26560.40, -26203.11, 0.006, -0.020, 0.974, 10:31:25.017, 1583739085017
104, -29223.41, -34174.41, -23498.59, -18936.64, -23782.32, -23498.99, -26345.35, -25863.18, 0.000, 0.000, 0.000, 10:31:25.017, 1583739085017
105, -29628.98, -34240.73, -23574.14, -18968.45, -24167.20, -23517.21, -26600.81, -26058.38, 0.000, 0.000, 0.000, 10:31:25.018, 1583739085018
106, -30158.96, -34264.66, -23731.29, -19181.91, -24915.36, -23659.50, -26872.05, -26443.39, 0.000, 0.000, 0.000, 10:31:25.018, 1583739085018
107, -30270.72, -34258.83, -23781.29, -19230.68, -25110.98, -23679.77, -26898.74, -26566.03, 0.000, 0.000, 0.000, 10:31:25.018, 1583739085018
108, -29687.45, -34199.49, -23636.48, -19088.68, -24413.83, -23590.52, -26563.17, -26207.20, 0.000, 0.000, 0.000, 10:31:25.018, 1583739085018
109, -29222.83, -34172.15, -23496.87, -18942.81, -23780.73, -23504.24, -26344.55, -25866.40, 0.000, 0.000, 0.000, 10:31:25.018, 1583739085018
110, -29621.85, -34232.14, -23567.30, -18961.14, -24155.66, -23517.92, -26594.08, -26057.24, 0.000, 0.000, 0.000, 10:31:25.019, 1583739085019
111, -30153.33, -34260.21, -23725.64, -19175.03, -24904.96, -23663.50, -26866.71, -26445.78, 0.000, 0.000, 0.000, 10:31:25.019, 1583739085019
112, -30270.09, -34259.05, -23782.46, -19227.46, -25110.48, -23688.20, -26894.42, -26576.87, 0.000, 0.000, 0.000, 10:31:25.023, 1583739085023
113, -29687.41, -34195.44, -23637.24, -19079.22, -24418.14, -23595.42, -26556.06, -26216.27, 0.004, -0.022, 0.974, 10:31:25.025, 1583739085025
114, -29220.97, -34169.67, -23506.12, -18949.27, -23788.89, -23517.03, -26340.35, -25877.60, 0.000, 0.000, 0.000, 10:31:25.025, 1583739085025
115, -29621.51, -34239.23, -23590.30, -18986.87, -24170.26, -23543.20, -26600.21, -26077.27, 0.000, 0.000, 0.000, 10:31:25.025, 1583739085025
116, -30157.04, -34264.78, -23742.42, -19193.31, -24920.50, -23684.18, -26877.19, -26463.66, 0.000, 0.000, 0.000, 10:31:25.025, 1583739085025
117, -30277.74, -34265.60, -23787.60, -19242.41, -25125.95, -23703.62, -26906.83, -26590.89, 0.000, 0.000, 0.000, 10:31:25.026, 1583739085026
118, -29700.48, -34210.48, -23648.66, -19101.71, -24438.81, -23614.17, -26573.94, -26234.78, 0.000, 0.000, 0.000, 10:31:25.026, 1583739085026
119, -29227.10, -34177.89, -23504.69, -18952.94, -23792.65, -23521.68, -26349.24, -25884.35, 0.000, 0.000, 0.000, 10:31:25.026, 1583739085026
120, -29620.62, -34241.17, -23577.49, -18974.35, -24157.16, -23534.04, -26599.89, -26069.64, 0.000, 0.000, 0.000, 10:31:25.026, 1583739085026
121, -30156.68, -34266.14, -23737.19, -19190.47, -24908.76, -23679.77, -26877.05, -26458.92, 0.000, 0.000, 0.000, 10:31:25.026, 1583739085026
122, -30277.81, -34257.11, -23789.23, -19240.74, -25121.30, -23699.60, -26905.87, -26585.83, 0.000, 0.000, 0.000, 10:31:25.027, 1583739085027
123, -29702.63, -34198.14, -23642.04, -19092.64, -24433.41, -23603.17, -26566.66, -26226.31, -0.002, -0.024, 0.968, 10:31:25.027, 1583739085027
124, -29225.51, -34167.16, -23496.67, -18952.63, -23782.21, -23516.31, -26335.56, -25876.81, 0.000, 0.000, 0.000, 10:31:25.027, 1583739085027
125, -29612.48, -34229.30, -23575.43, -18975.11, -24143.48, -23529.50, -26584.61, -26060.59, 0.000, 0.000, 0.000, 10:31:25.027, 1583739085027
126, -30146.20, -34253.64, -23737.60, -19189.24, -24901.83, -23675.28, -26867.73, -26449.02, 0.000, 0.000, 0.000, 10:31:25.027, 1583739085027
127, -30271.66, -34254.02, -23784.80, -19235.58, -25119.11, -23692.24, -26901.42, -26577.45, 0.000, 0.000, 0.000, 10:31:25.027, 1583739085027
128, -29704.15, -34201.99, -23635.67, -19083.31, -24428.02, -23592.24, -26565.07, -26219.11, 0.000, 0.000, 0.000, 10:31:25.028, 1583739085028
129, -29227.79, -34173.67, -23491.10, -18941.74, -23775.93, -23503.95, -26335.92, -25865.48, 0.000, 0.000, 0.000, 10:31:25.028, 1583739085028
130, -29613.87, -34233.86, -23562.13, -18962.71, -24131.86, -23515.62, -26583.82, -26045.50, 0.000, 0.000, 0.000, 10:31:25.028, 1583739085028
131, -30147.70, -34257.42, -23726.26, -19182.36, -24890.72, -23664.44, -26865.92, -26437.66, 0.000, 0.000, 0.000, 10:31:25.028, 1583739085028
132, -30273.63, -34249.73, -23780.00, -19235.29, -25117.82, -23688.42, -26904.82, -26574.70, 0.000, 0.000, 0.000, 10:31:25.028, 1583739085028
133, -29703.41, -34190.77, -23633.01, -19080.41, -24435.44, -23590.79, -26570.84, -26220.72, 0.000, -0.022, 0.970, 10:31:25.029, 1583739085029
134, -29221.11, -34165.11, -23498.16, -18945.16, -23788.27, -23510.99, -26342.89, -25873.42, 0.000, 0.000, 0.000, 10:31:25.029, 1583739085029
135, -29603.72, -34228.39, -23576.98, -18971.67, -24141.40, -23529.10, -26590.80, -26055.92, 0.000, 0.000, 0.000, 10:31:25.029, 1583739085029
136, -30143.90, -34260.73, -23734.06, -19183.79, -24896.02, -23673.78, -26868.96, -26445.18, 0.000, 0.000, 0.000, 10:31:25.029, 1583739085029
137, -30282.84, -34259.72, -23804.03, -19249.57, -25137.49, -23705.50, -26913.91, -26590.06, 0.000, 0.000, 0.000, 10:31:25.030, 1583739085030
138, -29717.04, -34202.46, -23663.90, -19105.91, -24460.16, -23611.58, -26584.00, -26241.42, 0.000, 0.000, 0.000, 10:31:25.030, 1583739085030
139, -29224.35, -34171.21, -23500.36, -18955.53, -23785.90, -23516.96, -26339.05, -25880.21, 0.000, 0.000, 0.000, 10:31:25.030, 1583739085030
140, -29603.19, -34234.18, -23568.04, -18969.81, -24126.36, -23524.90, -26580.63, -26053.71, 0.000, 0.000, 0.000, 10:31:25.030, 1583739085030
141, -30144.43, -34265.04, -23725.46, -19177.77, -24882.77, -23666.85, -26859.64, -26440.84, 0.000, 0.000, 0.000, 10:31:25.030, 1583739085030
142, -30281.70, -34267.08, -23778.86, -19231.20, -25117.15, -23688.94, -26897.69, -26578.82, 0.000, 0.000, 0.000, 10:31:25.031, 1583739085031
143, -29722.46, -34205.41, -23639.79, -19091.99, -24448.70, -23597.27, -26568.38, -26232.83, 0.006, -0.018, 0.970, 10:31:25.031, 1583739085031
144, -29231.25, -34170.03, -23498.95, -18955.64, -23784.92, -23513.83, -26333.42, -25877.20, 0.000, 0.000, 0.000, 10:31:25.031, 1583739085031
145, -29599.34, -34232.46, -23561.64, -18971.82, -24117.35, -23521.25, -26569.12, -26045.39, 0.000, 0.000, 0.000, 10:31:25.031, 1583739085031
146, -30139.11, -34259.50, -23711.56, -19176.95, -24868.30, -23659.95, -26846.93, -26430.94, 0.000, 0.000, 0.000, 10:31:25.032, 1583739085032
147, -30282.68, -34259.23, -23773.67, -19233.47, -25112.65, -23687.71, -26893.75, -26576.38, 0.000, 0.000, 0.000, 10:31:25.032, 1583739085032
148, -29722.57, -34195.95, -23635.87, -19088.86, -24446.68, -23595.04, -26568.94, -26230.78, 0.000, 0.000, 0.000, 10:31:25.032, 1583739085032
149, -29225.08, -34161.64, -23489.60, -18947.06, -23777.09, -23507.35, -26328.90, -25868.70, 0.000, 0.000, 0.000, 10:31:25.032, 1583739085032
150, -29592.30, -34221.73, -23552.41, -18955.78, -24105.89, -23511.78, -26566.28, -26032.90, 0.000, 0.000, 0.000, 10:31:25.032, 1583739085032
151, -30135.89, -34250.56, -23707.80, -19159.04, -24863.05, -23651.19, -26848.29, -26419.00, 0.000, 0.000, 0.000, 10:31:25.032, 1583739085032
152, -30281.85, -34248.26, -23766.99, -19218.12, -25112.27, -23677.09, -26892.66, -26563.21, 0.000, 0.000, 0.000, 10:31:25.033, 1583739085033
153, -29728.31, -34191.15, -23630.20, -19079.38, -24455.18, -23587.53, -26570.88, -26222.82, 0.008, -0.018, 0.972, 10:31:25.033, 1583739085033
154, -29225.38, -34161.00, -23481.20, -18937.98, -23781.63, -23501.05, -26330.04, -25862.00, 0.000, 0.000, 0.000, 10:31:25.033, 1583739085033
155, -29595.12, -34228.43, -23547.63, -18952.60, -24108.08, -23510.84, -26569.94, -26030.04, 0.000, 0.000, 0.000, 10:31:25.033, 1583739085033
156, -30142.13, -34259.52, -23710.55, -19160.94, -24867.95, -23654.04, -26857.21, -26420.52, 0.000, 0.000, 0.000, 10:31:25.033, 1583739085033
157, -30289.99, -34261.13, -23774.59, -19227.51, -25124.07, -23686.84, -26904.06, -26572.11, 0.000, 0.000, 0.000, 10:31:25.034, 1583739085034
158, -29736.47, -34198.88, -23640.34, -19083.85, -24463.18, -23595.15, -26580.29, -26232.14, 0.000, 0.000, 0.000, 10:31:25.034, 1583739085034
159, -29229.33, -34162.38, -23493.11, -18942.86, -23787.31, -23509.65, -26337.86, -25869.77, 0.000, 0.000, 0.000, 10:31:25.034, 1583739085034
160, -29587.74, -34225.77, -23569.24, -18967.73, -24116.10, -23524.41, -26578.82, -26038.71, 0.000, 0.000, 0.000, 10:31:25.034, 1583739085034
161, -30134.89, -34257.42, -23733.95, -19182.76, -24880.33, -23672.29, -26867.73, -26434.00, 0.000, 0.000, 0.000, 10:31:25.034, 1583739085034
162, -30287.33, -34257.45, -23784.38, -19240.76, -25131.83, -23698.12, -26911.63, -26582.82, 0.000, 0.000, 0.000, 10:31:25.034, 1583739085034
163, -29738.19, -34200.29, -23650.65, -19100.97, -24478.27, -23606.41, -26589.16, -26244.43, 0.008, -0.018, 0.974, 10:31:25.035, 1583739085035
164, -29232.10, -34171.32, -23508.49, -18964.70, -23795.93, -23524.09, -26342.49, -25881.64, 0.000, 0.000, 0.000, 10:31:25.035, 1583739085035
165, -29591.23, -34239.86, -23573.31, -18979.47, -24116.30, -23532.90, -26577.05, -26044.90, 0.000, 0.000, 0.000, 10:31:25.035, 1583739085035
166, -30130.69, -34263.12, -23719.27, -19172.77, -24869.15, -23665.56, -26855.66, -26427.09, 0.000, 0.000, 0.000, 10:31:25.035, 1583739085035
167, -30288.65, -34253.87, -23782.52, -19239.33, -25132.39, -23697.34, -26904.66, -26582.10, 0.000, 0.000, 0.000, 10:31:25.035, 1583739085035
168, -29744.27, -34197.72, -23651.59, -19101.51, -24485.96, -23607.15, -26585.01, -26248.55, 0.000, 0.000, 0.000, 10:31:25.035, 1583739085035
169, -29228.37, -34163.07, -23505.47, -18958.77, -23798.48, -23519.67, -26334.98, -25880.01, 0.000, 0.000, 0.000, 10:31:25.035, 1583739085035
170, -29582.15, -34229.28, -23569.85, -18968.72, -24108.48, -23526.78, -26568.87, -26038.91, 0.000, 0.000, 0.000, 10:31:25.036, 1583739085036
171, -30128.54, -34257.31, -23724.95, -19174.53, -24863.81, -23665.13, -26852.58, -26425.80, 0.000, 0.000, 0.000, 10:31:25.036, 1583739085036
172, -30290.61, -34258.00, -23782.66, -19237.41, -25129.10, -23694.95, -26904.39, -26580.49, 0.000, 0.000, 0.000, 10:31:25.036, 1583739085036
173, -29748.58, -34197.96, -23650.98, -19097.58, -24485.26, -23604.40, -26588.65, -26249.46, 0.000, -0.016, 0.974, 10:31:25.036, 1583739085036
174, -29224.48, -34158.58, -23506.12, -18959.24, -23799.31, -23518.06, -26337.51, -25877.89, 0.000, 0.000, 0.000, 10:31:25.036, 1583739085036
175, -29569.93, -34220.70, -23568.91, -18970.95, -24104.14, -23524.99, -26567.86, -26033.28, 0.000, 0.000, 0.000, 10:31:25.036, 1583739085036
176, -30118.39, -34254.81, -23720.79, -19170.96, -24855.94, -23664.08, -26854.48, -26421.30, 0.000, 0.000, 0.000, 10:31:25.036, 1583739085036
177, -30283.06, -34256.75, -23782.41, -19232.80, -25127.85, -23693.27, -26910.34, -26578.03, 0.000, 0.000, 0.000, 10:31:25.036, 1583739085036
178, -29748.29, -34202.04, -23653.04, -19099.43, -24489.04, -23604.54, -26596.68, -26250.51, 0.000, 0.000, 0.000, 10:31:25.037, 1583739085037
179, -29229.98, -34164.24, -23507.71, -18964.94, -23800.23, -23523.67, -26344.23, -25883.74, 0.000, 0.000, 0.000, 10:31:25.037, 1583739085037
180, -29574.24, -34226.31, -23562.67, -18969.37, -24097.21, -23526.53, -26570.84, -26035.20, 0.000, 0.000, 0.000, 10:31:25.037, 1583739085037
181, -30123.49, -34261.98, -23716.29, -19172.79, -24856.70, -23665.40, -26855.91, -26423.61, 0.000, 0.000, 0.000, 10:31:25.037, 1583739085037
182, -30290.35, -34258.96, -23787.51, -19245.14, -25138.98, -23700.20, -26914.99, -26585.34, 0.000, 0.000, 0.000, 10:31:25.037, 1583739085037
183, -29755.07, -34197.88, -23655.16, -19105.60, -24503.41, -23608.61, -26598.22, -26256.28, 0.000, -0.018, 0.970, 10:31:25.037, 1583739085037
184, -29227.34, -34158.88, -23500.04, -18955.69, -23803.00, -23519.13, -26339.12, -25880.66, 0.000, 0.000, 0.000, 10:31:25.038, 1583739085038
185, -29563.49, -34221.19, -23555.65, -18956.87, -24090.87, -23518.55, -26564.06, -26027.96, 0.000, 0.000, 0.000, 10:31:25.038, 1583739085038
186, -30115.31, -34254.83, -23713.55, -19163.20, -24852.26, -23659.68, -26852.36, -26417.46, 0.000, 0.000, 0.000, 10:31:25.038, 1583739085038
187, -30287.48, -34254.63, -23781.16, -19234.21, -25135.18, -23695.11, -26910.11, -26581.74, 0.000, 0.000, 0.000, 10:31:25.038, 1583739085038
188, -29760.36, -34199.78, -23652.30, -19101.80, -24504.13, -23607.62, -26596.32, -26258.34, 0.000, 0.000, 0.000, 10:31:25.038, 1583739085038
189, -29231.77, -34166.61, -23503.91, -18963.24, -23799.73, -23522.93, -26337.44, -25881.69, 0.000, 0.000, 0.000, 10:31:25.039, 1583739085039
190, -29564.61, -34228.43, -23561.00, -18971.47, -24083.65, -23524.99, -26558.92, -26025.16, 0.000, 0.000, 0.000, 10:31:25.039, 1583739085039
191, -30112.47, -34254.14, -23712.65, -19168.63, -24839.60, -23658.36, -26842.95, -26410.06, 0.000, 0.000, 0.000, 10:31:25.039, 1583739085039
192, -30288.27, -34251.19, -23781.12, -19237.41, -25131.76, -23693.21, -26904.50, -26577.65, 0.000, 0.000, 0.000, 10:31:25.039, 1583739085039
193, -29764.12, -34200.05, -23657.38, -19109.15, -24512.20, -23611.31, -26598.66, -26262.52, 0.000, 0.000, 0.000, 10:31:25.040, 1583739085040
194, -29229.49, -34161.71, -23495.59, -18959.91, -23798.68, -23521.95, -26332.99, -25880.35, 0.004, -0.012, 0.970, 10:31:25.040, 1583739085040
195, -29556.36, -34220.88, -23547.07, -18952.33, -24068.85, -23516.47, -26548.15, -26014.12, 0.000, 0.000, 0.000, 10:31:25.040, 1583739085040
196, -30109.70, -34255.14, -23703.87, -19157.14, -24830.53, -23655.43, -26836.87, -26403.89, 0.000, 0.000, 0.000, 10:31:25.040, 1583739085040
197, -30289.63, -34256.64, -23772.78, -19234.17, -25126.13, -23695.51, -26900.37, -26576.56, 0.000, 0.000, 0.000, 10:31:25.040, 1583739085040
198, -29769.88, -34197.70, -23654.22, -19104.75, -24511.44, -23613.23, -26598.78, -26262.99, 0.000, 0.000, 0.000, 10:31:25.040, 1583739085040
199, -29232.13, -34155.12, -23504.58, -18963.78, -23805.93, -23527.83, -26336.81, -25883.05, 0.000, 0.000, 0.000, 10:31:25.040, 1583739085040
200, -29557.79, -34221.48, -23555.27, -18962.44, -24077.75, -23525.48, -26553.80, -26019.93, 0.000, 0.000, 0.000, 10:31:25.041, 1583739085041
201, -30112.40, -34258.38, -23713.10, -19168.03, -24838.58, -23666.96, -26846.88, -26412.92, 0.000, 0.000, 0.000, 10:31:25.041, 1583739085041
202, -30285.58, -34253.09, -23775.91, -19238.71, -25135.59, -23698.95, -26905.76, -26581.36, 0.000, 0.000, 0.000, 10:31:25.041, 1583739085041
203, -29768.14, -34197.77, -23649.75, -19104.55, -24515.26, -23609.34, -26598.13, -26265.58, 0.000, 0.000, 0.000, 10:31:25.041, 1583739085041
204, -29232.57, -34156.15, -23500.04, -18959.96, -23800.23, -23521.88, -26328.77, -25881.49, 0.000, -0.014, 0.970, 10:31:25.041, 1583739085041
205, -29553.63, -34217.88, -23556.08, -18961.01, -24065.05, -23521.39, -26543.97, -26014.12, 0.000, 0.000, 0.000, 10:31:25.041, 1583739085041
206, -30105.90, -34255.14, -23714.31, -19170.87, -24826.55, -23663.28, -26836.20, -26404.61, 0.000, 0.000, 0.000, 10:31:25.041, 1583739085041
207, -30296.04, -34258.61, -23784.38, -19248.43, -25133.62, -23704.47, -26907.48, -26581.14, 0.000, 0.000, 0.000, 10:31:25.042, 1583739085042
208, -29778.00, -34199.15, -23653.87, -19098.11, -24516.49, -23605.50, -26598.53, -26259.70, 0.000, 0.000, 0.000, 10:31:25.042, 1583739085042
209, -29235.79, -34163.63, -23505.25, -18960.96, -23803.27, -23524.18, -26330.76, -25879.77, 0.000, 0.000, 0.000, 10:31:25.042, 1583739085042
210, -29552.54, -34227.71, -23563.01, -18968.58, -24065.38, -23527.91, -26546.70, -26016.18, 0.000, 0.000, 0.000, 10:31:25.493, 1583739085493
211, -30105.94, -34254.00, -23717.26, -19161.32, -24825.08, -23659.92, -26836.87, -26401.68, 0.000, 0.000, 0.000, 10:31:25.494, 1583739085494
212, -30300.18, -34252.48, -23782.17, -19232.00, -25135.50, -23696.60, -26907.32, -26576.76, 0.000, 0.000, 0.000, 10:31:25.494, 1583739085494
213, -29795.46, -34203.33, -23661.53, -19103.90, -24533.14, -23614.21, -26608.46, -26269.13, 0.000, 0.000, 0.000, 10:31:25.494, 1583739085494
214, -29245.11, -34159.41, -23516.09, -18968.40, -23817.82, -23531.74, -26339.09, -25885.80, 0.002, -0.020, 0.966, 10:31:25.494, 1583739085494
215, -29553.77, -34218.15, -23564.57, -18966.48, -24066.81, -23526.62, -26546.47, -26011.98, 0.000, 0.000, 0.000, 10:31:25.494, 1583739085494
216, -30115.22, -34261.38, -23717.48, -19167.49, -24825.28, -23666.43, -26840.69, -26404.03, 0.000, 0.000, 0.000, 10:31:25.495, 1583739085495
217, -30304.90, -34258.43, -23784.47, -19233.59, -25135.85, -23698.19, -26905.62, -26575.84, 0.000, 0.000, 0.000, 10:31:25.495, 1583739085495
218, -29792.88, -34195.11, -23650.74, -19094.18, -24527.44, -23602.32, -26596.54, -26260.21, 0.000, 0.000, 0.000, 10:31:25.495, 1583739085495
219, -29238.58, -34154.00, -23501.49, -18953.70, -23805.72, -23517.88, -26325.93, -25874.85, 0.000, 0.000, 0.000, 10:31:25.495, 1583739085495
220, -29542.30, -34218.66, -23553.44, -18951.73, -24054.61, -23516.63, -26536.82, -26001.83, 0.000, 0.000, 0.000, 10:31:25.495, 1583739085495
221, -30102.52, -34256.71, -23713.77, -19160.94, -24816.94, -23659.30, -26834.81, -26396.40, 0.000, 0.000, 0.000, 10:31:25.496, 1583739085496
222, -30296.94, -34253.91, -23783.28, -19235.73, -25131.65, -23699.13, -26906.89, -26577.83, 0.000, 0.000, 0.000, 10:31:25.496, 1583739085496
223, -29797.24, -34200.25, -23666.50, -19108.95, -24539.62, -23617.23, -26613.17, -26277.45, 0.000, 0.000, 0.000, 10:31:25.496, 1583739085496
224, -29242.76, -34158.58, -23516.56, -18969.32, -23818.67, -23535.27, -26340.99, -25890.03, 0.002, -0.014, 0.968, 10:31:25.496, 1583739085496
225, -29536.87, -34214.24, -23557.38, -18957.34, -24050.16, -23523.06, -26539.14, -26004.96, 0.000, 0.000, 0.000, 10:31:25.496, 1583739085496
226, -30098.95, -34246.78, -23710.26, -19152.45, -24805.61, -23657.58, -26833.31, -26393.54, 0.000, 0.000, 0.000, 10:31:25.497, 1583739085497
227, -30298.84, -34249.60, -23786.03, -19240.40, -25136.35, -23704.34, -26911.25, -26581.32, 0.000, 0.000, 0.000, 10:31:25.500, 1583739085500
228, -29795.57, -34196.27, -23663.95, -19117.63, -24547.38, -23621.01, -26613.62, -26282.99, 0.000, 0.000, 0.000, 10:31:25.500, 1583739085500
229, -29236.66, -34161.51, -23509.21, -18976.54, -23819.81, -23536.21, -26336.93, -25895.26, 0.000, 0.000, 0.000, 10:31:25.500, 1583739085500
230, -29532.15, -34221.05, -23559.10, -18960.65, -24051.37, -23526.13, -26538.94, -26009.41, 0.000, 0.000, 0.000, 10:31:25.500, 1583739085500
231, -30091.75, -34254.65, -23722.06, -19156.18, -24813.65, -23661.13, -26836.22, -26396.18, 0.000, 0.000, 0.000, 10:31:25.500, 1583739085500
232, -30297.05, -34253.09, -23784.22, -19233.05, -25136.95, -23699.38, -26909.24, -26578.48, 0.000, 0.000, 0.000, 10:31:25.501, 1583739085501
233, -29798.05, -34198.64, -23650.94, -19095.52, -24541.07, -23605.90, -26609.37, -26273.51, 0.000, 0.000, 0.000, 10:31:25.501, 1583739085501
234, -29232.30, -34156.13, -23502.12, -18957.68, -23813.91, -23523.69, -26332.86, -25882.78, 0.000, -0.014, 0.966, 10:31:25.501, 1583739085501
235, -29521.40, -34214.75, -23545.97, -18951.11, -24039.41, -23517.10, -26531.77, -25995.66, 0.000, 0.000, 0.000, 10:31:25.501, 1583739085501
236, -30080.64, -34246.58, -23698.93, -19148.04, -24797.81, -23650.49, -26825.78, -26383.35, 0.000, 0.000, 0.000, 10:31:25.501, 1583739085501
237, -30290.17, -34247.97, -23783.98, -19237.99, -25137.22, -23701.86, -26908.91, -26577.38, 0.000, 0.000, 0.000, 10:31:25.501, 1583739085501
238, -29800.15, -34198.37, -23671.55, -19114.61, -24560.34, -23619.29, -26616.30, -26283.06, 0.000, 0.000, 0.000, 10:31:25.501, 1583739085501
239, -29233.00, -34155.59, -23517.32, -18974.75, -23826.18, -23535.29, -26334.73, -25889.49, 0.000, 0.000, 0.000, 10:31:25.501, 1583739085501
240, -29517.53, -34213.28, -23549.95, -18956.85, -24037.82, -23521.50, -26527.27, -25995.30, 0.000, 0.000, 0.000, 10:31:25.502, 1583739085502
241, -30080.33, -34249.40, -23696.69, -19150.39, -24789.92, -23653.20, -26822.00, -26381.58, 0.000, 0.000, 0.000, 10:31:25.502, 1583739085502
242, -30294.39, -34251.30, -23769.87, -19238.19, -25128.26, -23699.13, -26903.34, -26573.34, 0.000, 0.000, 0.000, 10:31:25.502, 1583739085502
243, -29803.95, -34197.92, -23648.19, -19101.60, -24549.35, -23607.60, -26609.17, -26276.62, 0.000, 0.000, 0.000, 10:31:25.502, 1583739085502
244, -29231.30, -34157.09, -23495.44, -18959.64, -23815.40, -23524.41, -26326.82, -25884.79, 0.002, -0.016, 0.968, 10:31:25.502, 1583739085502
245, -29515.23, -34217.19, -23543.52, -18952.02, -24032.80, -23521.79, -26525.55, -25995.62, 0.000, 0.000, 0.000, 10:31:25.502, 1583739085502
246, -30078.47, -34248.66, -23695.24, -19145.70, -24788.51, -23653.04, -26820.06, -26380.89, 0.000, 0.000, 0.000, 10:31:25.502, 1583739085502
247, -30299.04, -34257.40, -23775.19, -19237.21, -25133.46, -23702.10, -26906.63, -26577.61, 0.000, 0.000, 0.000, 10:31:25.502, 1583739085502
248, -29816.60, -34209.77, -23663.25, -19112.78, -24562.98, -23618.73, -26619.85, -26289.34, 0.000, 0.000, 0.000, 10:31:25.503, 1583739085503
249, -29240.46, -34163.63, -23504.58, -18969.97, -23821.13, -23533.41, -26332.50, -25892.73, 0.000, 0.000, 0.000, 10:31:25.503, 1583739085503
250, -29517.51, -34222.80, -23538.38, -18952.47, -24024.97, -23522.62, -26524.99, -25995.55, 0.000, 0.000, 0.000, 10:31:25.503, 1583739085503
251, -30080.51, -34260.37, -23691.75, -19144.38, -24782.00, -23655.01, -26823.03, -26380.49, 0.000, 0.000, 0.000, 10:31:25.503, 1583739085503
252, -30300.45, -34260.98, -23773.00, -19243.60, -25137.02, -23709.03, -26910.36, -26581.48, 0.000, 0.000, 0.000, 10:31:25.504, 1583739085504
253, -29817.92, -34204.76, -23649.80, -19109.78, -24567.25, -23616.56, -26619.00, -26287.30, 0.000, 0.000, 0.000, 10:31:25.504, 1583739085504
254, -29238.27, -34156.77, -23489.71, -18949.52, -23817.01, -23518.66, -26326.82, -25879.47, 0.008, -0.024, 0.970, 10:31:25.504, 1583739085504
255, -29508.79, -34210.08, -23532.74, -18940.24, -24018.33, -23509.47, -26514.85, -25979.54, 0.000, 0.000, 0.000, 10:31:25.504, 1583739085504
0, -30076.84, -34252.15, -23693.97, -19146.53, -24782.65, -23650.02, -26816.82, -26373.85, 0.000, 0.000, 0.000, 10:31:25.506, 1583739085506
1, -30303.40, -34261.96, -23772.91, -19236.85, -25139.81, -23699.62, -26908.30, -26575.49, 0.000, 0.000, 0.000, 10:31:25.507, 1583739085507
2, -29828.87, -34210.42, -23652.55, -19105.91, -24577.69, -23611.53, -26620.84, -26287.44, 0.000, 0.000, 0.000, 10:31:25.507, 1583739085507
3, -29245.07, -34161.71, -23495.24, -18961.86, -23825.73, -23524.81, -26329.15, -25885.44, 0.000, 0.000, 0.000, 10:31:25.507, 1583739085507
4, -29509.69, -34221.35, -23531.22, -18947.06, -24022.49, -23514.10, -26517.48, -25983.05, 0.000, 0.000, 0.000, 10:31:25.508, 1583739085508
5, -30077.22, -34258.27, -23682.54, -19139.02, -24778.36, -23645.69, -26818.87, -26371.91, 0.000, 0.000, 0.000, 10:31:25.508, 1583739085508
6, -30302.66, -34259.43, -23769.27, -19233.74, -25138.87, -23698.08, -26911.37, -26574.70, 0.000, 0.000, 0.000, 10:31:25.508, 1583739085508
7, -29830.41, -34204.63, -23659.81, -19109.36, -24585.17, -23614.10, -26629.20, -26291.69, 0.000, 0.000, 0.000, 10:31:25.508, 1583739085508
8, -29241.98, -34160.26, -23501.16, -18966.10, -23834.11, -23528.79, -26337.26, -25890.43, 0.004, -0.020, 0.976, 10:31:25.508, 1583739085508
9, -29499.59, -34217.43, -23536.92, -18949.18, -24016.32, -23515.31, -26519.94, -25982.27, 0.000, 0.000, 0.000, 10:31:25.508, 1583739085508
10, -30070.16, -34257.94, -23690.59, -19145.88, -24772.68, -23649.91, -26819.23, -26371.62, 0.000, 0.000, 0.000, 10:31:25.509, 1583739085509
11, -30295.31, -34255.79, -23773.83, -19240.31, -25134.33, -23699.80, -26904.86, -26571.55, 0.000, 0.000, 0.000, 10:31:25.509, 1583739085509
12, -29829.92, -34206.15, -23665.24, -19114.65, -24583.25, -23616.58, -26624.37, -26292.00, 0.000, 0.000, 0.000, 10:31:25.509, 1583739085509
13, -29244.08, -34154.49, -23500.58, -18963.58, -23826.60, -23526.82, -26328.86, -25885.38, 0.000, 0.000, 0.000, 10:31:25.509, 1583739085509
14, -29499.41, -34209.12, -23530.42, -18937.11, -24002.51, -23508.69, -26510.49, -25970.94, 0.000, 0.000, 0.000, 10:31:25.509, 1583739085509
15, -30066.49, -34252.64, -23689.92, -19136.36, -24768.57, -23643.65, -26816.17, -26360.13, 0.000, 0.000, 0.000, 10:31:25.510, 1583739085510
16, -30296.76, -34253.96, -23771.17, -19235.64, -25141.40, -23698.97, -26910.58, -26568.54, 0.000, 0.000, 0.000, 10:31:25.510, 1583739085510
17, -29836.16, -34206.19, -23659.66, -19115.35, -24597.92, -23619.33, -26633.24, -26296.42, 0.000, 0.000, 0.000, 10:31:25.510, 1583739085510
18, -29242.70, -34157.58, -23503.66, -18973.77, -23840.26, -23534.96, -26338.31, -25893.42, 0.000, -0.018, 0.972, 10:31:25.510, 1583739085510
19, -29491.43, -34212.83, -23539.45, -18948.85, -24013.48, -23520.23, -26521.55, -25981.76, 0.000, 0.000, 0.000, 10:31:25.510, 1583739085510
20, -30059.07, -34248.59, -23685.94, -19133.56, -24765.71, -23647.45, -26821.58, -26367.32, 0.000, 0.000, 0.000, 10:31:25.511, 1583739085511
21, -30296.85, -34254.32, -23769.45, -19233.65, -25137.24, -23700.76, -26915.72, -26576.60, 0.000, 0.000, 0.000, 10:31:25.511, 1583739085511
22, -29843.24, -34210.44, -23658.40, -19111.05, -24597.40, -23618.01, -26636.44, -26303.24, 0.000, 0.000, 0.000, 10:31:25.511, 1583739085511
23, -29249.27, -34162.09, -23498.48, -18969.05, -23835.50, -23533.12, -26334.94, -25896.06, 0.000, 0.000, 0.000, 10:31:25.511, 1583739085511
24, -29495.88, -34219.38, -23535.04, -18949.27, -23999.60, -23519.15, -26510.98, -25980.19, 0.000, 0.000, 0.000, 10:31:25.511, 1583739085511
25, -30065.51, -34260.02, -23697.45, -19147.11, -24762.92, -23655.97, -26819.50, -26372.24, 0.000, 0.000, 0.000, 10:31:25.511, 1583739085511
26, -30306.93, -34261.29, -23778.61, -19252.03, -25142.54, -23715.51, -26918.94, -26586.66, 0.000, 0.000, 0.000, 10:31:25.512, 1583739085512
27, -29852.23, -34206.68, -23663.50, -19126.48, -24603.14, -23628.45, -26636.17, -26310.44, 0.000, 0.000, 0.000, 10:31:25.512, 1583739085512
28, -29248.24, -34150.58, -23497.20, -18967.67, -23831.03, -23532.47, -26327.47, -25892.51, 0.000, 0.000, 0.000, 10:31:25.512, 1583739085512
29, -29486.40, -34209.14, -23521.77, -18938.77, -23985.70, -23509.61, -26498.04, -25967.81, -0.006, -0.022, 0.970, 10:31:25.512, 1583739085512
30, -30056.55, -34247.52, -23670.97, -19128.53, -24743.38, -23637.21, -26800.95, -26353.98, 0.000, 0.000, 0.000, 10:31:25.512, 1583739085512
31, -30299.13, -34250.52, -23757.38, -19229.59, -25129.48, -23694.21, -26901.40, -26567.93, 0.000, 0.000, 0.000, 10:31:25.512, 1583739085512
32, -29850.51, -34203.84, -23655.72, -19115.66, -24604.17, -23618.42, -26631.90, -26304.02, 0.000, 0.000, 0.000, 10:31:25.513, 1583739085513
33, -29250.39, -34154.83, -23499.80, -18974.33, -23844.79, -23536.43, -26335.79, -25896.44, 0.000, 0.000, 0.000, 10:31:25.513, 1583739085513
34, -29483.27, -34209.10, -23529.72, -18948.49, -23996.74, -23518.26, -26510.24, -25972.53, 0.000, 0.000, 0.000, 10:31:25.513, 1583739085513
35, -30050.15, -34249.62, -23679.10, -19128.78, -24751.03, -23641.86, -26810.63, -26355.54, 0.000, 0.000, 0.000, 10:31:25.513, 1583739085513
36, -30296.80, -34253.67, -23763.01, -19232.47, -25139.12, -23700.43, -26911.86, -26571.57, 0.000, 0.000, 0.000, 10:31:25.513, 1583739085513
37, -29849.88, -34199.87, -23650.85, -19109.53, -24613.56, -23614.42, -26637.22, -26302.55, 0.000, 0.000, 0.000, 10:31:25.513, 1583739085513
38, -29246.97, -34151.61, -23493.63, -18971.24, -23844.95, -23532.01, -26333.42, -25893.13, 0.000, 0.000, 0.000, 10:31:25.514, 1583739085514
39, -29479.76, -34209.25, -23529.72, -18950.50, -23993.68, -23519.15, -26505.53, -25969.62, -0.002, -0.020, 0.970, 10:31:25.514, 1583739085514
40, -30051.61, -34250.31, -23680.60, -19133.58, -24749.62, -23645.64, -26811.05, -26356.30, 0.000, 0.000, 0.000, 10:31:25.514, 1583739085514
41, -30294.86, -34245.75, -23762.81, -19237.97, -25139.47, -23702.19, -26911.14, -26571.06, 0.000, 0.000, 0.000, 10:31:25.514, 1583739085514
42, -29856.48, -34198.88, -23662.58, -19125.63, -24623.55, -23625.50, -26644.75, -26312.94, 0.000, 0.000, 0.000, 10:31:25.514, 1583739085514
43, -29248.71, -34148.30, -23496.89, -18970.51, -23847.61, -23533.82, -26332.52, -25896.33, 0.000, 0.000, 0.000, 10:31:25.514, 1583739085514
44, -29471.96, -34203.40, -23523.96, -18937.02, -23983.26, -23513.01, -26497.59, -25963.72, 0.000, 0.000, 0.000, 10:31:25.515, 1583739085515
45, -30043.83, -34246.70, -23679.59, -19129.05, -24741.48, -23644.32, -26806.67, -26354.29, 0.000, 0.000, 0.000, 10:31:25.515, 1583739085515
46, -30302.53, -34255.46, -23769.80, -19241.37, -25145.51, -23709.10, -26916.28, -26581.61, 0.000, 0.000, 0.000, 10:31:25.515, 1583739085515
47, -29866.20, -34206.35, -23657.06, -19112.19, -24625.74, -23619.82, -26645.11, -26318.15, 0.000, 0.000, 0.000, 10:31:25.516, 1583739085516
48, -29255.01, -34155.70, -23489.02, -18962.39, -23845.44, -23529.44, -26334.31, -25900.89, 0.000, 0.000, 0.000, 10:31:25.518, 1583739085518
49, -29476.70, -34215.02, -23521.05, -18945.88, -23983.96, -23519.02, -26503.89, -25972.79, 0.002, -0.024, 0.970, 10:31:25.518, 1583739085518
50, -30047.02, -34254.76, -23682.03, -19142.93, -24745.57, -23651.63, -26811.74, -26361.36, 0.000, 0.000, 0.000, 10:31:25.518, 1583739085518
51, -30301.83, -34257.73, -23773.81, -19248.00, -25150.32, -23709.32, -26918.34, -26582.50, 0.000, 0.000, 0.000, 10:31:25.519, 1583739085519
52, -29870.74, -34209.52, -23661.51, -19122.86, -24636.18, -23622.89, -26649.58, -26321.48, 0.000, 0.000, 0.000, 10:31:25.519, 1583739085519
53, -29256.96, -34157.69, -23491.68, -18973.32, -23853.67, -23532.38, -26332.90, -25902.25, 0.000, 0.000, 0.000, 10:31:25.519, 1583739085519
54, -29466.33, -34206.28, -23514.77, -18944.04, -23975.96, -23510.06, -26491.78, -25960.79, 0.000, 0.000, 0.000, 10:31:25.519, 1583739085519
55, -30039.22, -34243.61, -23671.68, -19134.99, -24732.81, -23639.38, -26801.10, -26345.15, 0.000, 0.000, 0.000, 10:31:25.519, 1583739085519
56, -30305.97, -34254.98, -23766.27, -19249.59, -25144.35, -23706.59, -26913.15, -26573.59, 0.000, 0.000, 0.000, 10:31:25.520, 1583739085520
57, -29883.34, -34211.73, -23670.92, -19139.40, -24646.33, -23631.52, -26653.20, -26324.95, 0.000, 0.000, 0.000, 10:31:25.520, 1583739085520
58, -29268.13, -34164.13, -23509.09, -18991.74, -23865.56, -23545.30, -26339.61, -25908.11, 0.000, 0.000, 0.000, 10:31:25.520, 1583739085520
59, -29471.56, -34215.80, -23526.64, -18948.04, -23978.12, -23517.52, -26492.38, -25961.19, 0.002, -0.024, 0.970, 10:31:25.520, 1583739085520
60, -30042.87, -34255.63, -23674.18, -19129.67, -24727.98, -23641.53, -26797.77, -26345.75, 0.000, 0.000, 0.000, 10:31:25.520, 1583739085520
61, -30304.47, -34258.00, -23760.69, -19241.43, -25135.90, -23702.44, -26906.22, -26571.78, 0.000, 0.000, 0.000, 10:31:25.520, 1583739085520
62, -29886.45, -34212.92, -23659.30, -19126.70, -24636.45, -23622.26, -26642.70, -26321.01, 0.000, 0.000, 0.000, 10:31:25.521, 1583739085521
63, -29268.87, -34166.14, -23494.10, -18975.71, -23850.47, -23532.70, -26322.40, -25898.50, 0.000, 0.000, 0.000, 10:31:25.521, 1583739085521
64, -29473.50, -34218.02, -23507.80, -18939.55, -23957.96, -23508.74, -26475.73, -25953.41, 0.000, 0.000, 0.000, 10:31:25.521, 1583739085521
65, -30046.31, -34260.11, -23661.94, -19122.47, -24710.72, -23633.10, -26786.49, -26337.48, 0.000, 0.000, 0.000, 10:31:25.522, 1583739085522
66, -30308.12, -34260.66, -23756.64, -19234.44, -25129.69, -23695.55, -26898.51, -26565.81, 0.000, 0.000, 0.000, 10:31:25.522, 1583739085522
67, -29888.66, -34211.45, -23663.23, -19128.78, -24643.63, -23621.30, -26643.26, -26321.73, 0.000, 0.000, 0.000, 10:31:25.523, 1583739085523
68, -29262.32, -34153.82, -23497.52, -18979.38, -23856.78, -23532.50, -26325.62, -25899.99, 0.000, 0.000, 0.000, 10:31:25.523, 1583739085523
69, -29460.65, -34210.02, -23506.48, -18925.60, -23953.40, -23498.03, -26474.95, -25943.31, 0.004, -0.024, 0.972, 10:31:25.523, 1583739085523
70, -30032.76, -34250.92, -23657.69, -19109.65, -24706.10, -23621.30, -26783.87, -26324.63, 0.000, 0.000, 0.000, 10:31:25.524, 1583739085524
71, -30303.47, -34254.85, -23754.36, -19232.71, -25132.84, -23691.91, -26902.85, -26561.22, 0.000, 0.000, 0.000, 10:31:25.524, 1583739085524
72, -29891.70, -34210.33, -23660.93, -19120.84, -24649.90, -23614.71, -26650.03, -26319.78, 0.000, 0.000, 0.000, 10:31:25.525, 1583739085525
73, -29268.51, -34158.32, -23498.90, -18975.87, -23861.20, -23529.01, -26331.03, -25899.01, 0.000, 0.000, 0.000, 10:31:25.525, 1583739085525
74, -29456.67, -34207.87, -23506.26, -18935.44, -23953.04, -23501.43, -26475.84, -25943.47, 0.000, 0.000, 0.000, 10:31:25.981, 1583739085981
75, -30030.57, -34252.59, -23666.70, -19123.59, -24711.15, -23630.06, -26792.19, -26330.38, 0.000, 0.000, 0.000, 10:31:25.981, 1583739085981
76, -30306.57, -34257.11, -23764.62, -19242.75, -25140.55, -23698.59, -26911.41, -26567.10, 0.000, 0.000, 0.000, 10:31:25.981, 1583739085981
77, -29902.07, -34217.88, -23665.85, -19130.57, -24660.92, -23622.98, -26659.95, -26328.59, 0.000, 0.000, 0.000, 10:31:25.982, 1583739085982
