%OpenBCI Raw EEG Data
%Number of channels = 8
%Sample Rate = 250.0 Hz
%First Column = SampleIndex
%Last Column = Timestamp 
%Other Columns = EEG data in microvolts followed by Accel Data (in G) interleaved with Aux Data
0, 0.00, 0.00, 0.00, 0.00, 0.00, 0.00, 0.00, 0.00, 0.000, 0.000, 0.000, 10:39:35.456, 1583739575456
1, -26379.62, -31328.16, -20332.73, -16195.94, -19982.68, -21042.96, -24003.49, -22561.87, 0.008, -0.016, 0.980, 10:39:35.946, 1583739575946
2, -26784.70, -31351.56, -20431.60, -16292.34, -20488.26, -21089.65, -24181.66, -22806.42, 0.000, 0.000, 0.000, 10:39:35.947, 1583739575947
3, -26628.95, -31321.86, -20409.20, -16262.59, -20346.17, -21068.93, -24081.79, -22745.78, 0.000, 0.000, 0.000, 10:39:35.947, 1583739575947
4, -25983.21, -31255.81, -20279.67, -16169.23, -19669.11, -21028.52, -23768.42, -22416.29, 0.000, 0.000, 0.000, 10:39:35.947, 1583739575947
5, -25856.94, -31259.61, -20242.01, -16128.55, -19462.56, -21012.54, -23746.69, -22315.45, 0.000, 0.000, 0.000, 10:39:35.948, 1583739575948
6, -26382.57, -31323.89, -20345.76, -16204.30, -19996.70, -21052.68, -24017.20, -22566.50, 0.000, 0.000, 0.000, 10:39:35.948, 1583739575948
7, -26775.36, -31340.68, -20435.64, -16289.46, -20492.17, -21087.98, -24187.60, -22796.48, 0.000, 0.000, 0.000, 10:39:35.948, 1583739575948
8, -26626.49, -31320.02, -20414.85, -16256.27, -20350.05, -21063.75, -24091.42, -22735.57, 0.000, -0.016, 0.974, 10:39:35.948, 1583739575948
9, -25985.22, -31253.86, -20288.23, -16162.17, -19676.11, -21020.83, -23778.66, -22406.42, 0.000, 0.000, 0.000, 10:39:35.948, 1583739575948
10, -25855.13, -31264.88, -20244.11, -16114.42, -19459.18, -20996.78, -23747.83, -22300.36, 0.000, 0.000, 0.000, 10:39:35.949, 1583739575949
11, -26377.83, -31327.40, -20340.27, -16185.37, -19984.96, -21033.57, -24009.91, -22548.82, 0.000, 0.000, 0.000, 10:39:35.949, 1583739575949
12, -26775.09, -31346.80, -20434.86, -16279.40, -20485.17, -21076.62, -24183.78, -22786.26, 0.000, 0.000, 0.000, 10:39:35.949, 1583739575949
13, -26631.10, -31315.78, -20416.80, -16252.94, -20351.64, -21056.86, -24090.53, -22732.17, 0.000, 0.000, 0.000, 10:39:35.949, 1583739575949
14, -25992.24, -31248.45, -20289.55, -16161.07, -19681.60, -21016.70, -23781.34, -22407.27, 0.000, 0.000, 0.000, 10:39:35.949, 1583739575949
15, -25861.57, -31274.02, -20248.31, -16115.67, -19465.44, -20995.93, -23755.10, -22301.99, 0.000, 0.000, 0.000, 10:39:35.949, 1583739575949
16, -26374.65, -31322.88, -20343.44, -16188.29, -19990.19, -21033.30, -24016.10, -22547.86, 0.000, 0.000, 0.000, 10:39:35.949, 1583739575949
17, -26773.10, -31339.92, -20437.79, -16286.08, -20489.26, -21079.97, -24187.47, -22787.31, 0.000, 0.000, 0.000, 10:39:35.950, 1583739575950
18, -26634.27, -31321.59, -20417.45, -16256.56, -20357.16, -21058.05, -24093.17, -22732.51, 0.002, -0.018, 0.970, 10:39:35.950, 1583739575950
19, -25999.35, -31255.02, -20290.82, -16167.44, -19687.88, -21020.41, -23783.51, -22409.50, 0.000, 0.000, 0.000, 10:39:35.950, 1583739575950
20, -25870.11, -31257.95, -20248.56, -16123.41, -19468.77, -21001.63, -23754.58, -22308.16, 0.000, 0.000, 0.000, 10:39:35.950, 1583739575950
21, -26387.84, -31321.41, -20343.75, -16192.03, -19991.09, -21039.58, -24014.09, -22555.68, 0.000, 0.000, 0.000, 10:39:35.950, 1583739575950
22, -26771.13, -31351.61, -20432.44, -16284.83, -20480.01, -21082.75, -24180.03, -22788.72, 0.000, 0.000, 0.000, 10:39:35.950, 1583739575950
23, -26635.52, -31329.63, -20416.62, -16262.30, -20353.86, -21066.18, -24091.89, -22742.61, 0.000, 0.000, 0.000, 10:39:35.950, 1583739575950
24, -26002.16, -31259.74, -20289.95, -16168.38, -19686.46, -21023.87, -23781.45, -22419.40, 0.000, 0.000, 0.000, 10:39:35.950, 1583739575950
25, -25875.36, -31260.63, -20249.43, -16121.91, -19469.46, -21003.08, -23752.35, -22317.03, 0.000, 0.000, 0.000, 10:39:35.951, 1583739575951
26, -26383.30, -31314.95, -20340.29, -16192.63, -19984.00, -21038.73, -24005.88, -22560.11, 0.000, 0.000, 0.000, 10:39:35.951, 1583739575951
27, -26757.92, -31331.58, -20430.48, -16289.15, -20472.90, -21084.20, -24165.61, -22789.86, 0.000, 0.000, 0.000, 10:39:35.951, 1583739575951
28, -26627.83, -31314.03, -20417.92, -16268.22, -20352.80, -21069.51, -24081.54, -22744.75, 0.002, -0.018, 0.974, 10:39:35.951, 1583739575951
29, -26001.83, -31246.33, -20293.21, -16175.00, -19692.20, -21027.67, -23778.12, -22424.30, 0.000, 0.000, 0.000, 10:39:35.951, 1583739575951
30, -25876.93, -31258.15, -20249.36, -16120.61, -19472.21, -21001.56, -23749.64, -22317.70, 0.000, 0.000, 0.000, 10:39:35.951, 1583739575951
31, -26385.76, -31319.38, -20342.03, -16191.89, -19983.06, -21038.87, -24006.69, -22558.18, 0.000, 0.000, 0.000, 10:39:35.951, 1583739575951
32, -26752.60, -31339.54, -20426.16, -16284.18, -20462.73, -21077.76, -24162.48, -22777.61, 0.000, 0.000, 0.000, 10:39:35.952, 1583739575952
33, -26618.74, -31318.95, -20408.62, -16254.72, -20342.86, -21053.15, -24075.49, -22725.78, 0.000, 0.000, 0.000, 10:39:35.952, 1583739575952
34, -26004.94, -31257.26, -20292.52, -16168.47, -19691.53, -21016.76, -23780.29, -22411.71, 0.000, 0.000, 0.000, 10:39:35.952, 1583739575952
35, -25887.54, -31263.54, -20258.10, -16126.94, -19480.33, -21000.58, -23761.11, -22314.68, 0.000, 0.000, 0.000, 10:39:35.953, 1583739575953
36, -26384.65, -31314.55, -20343.75, -16184.09, -19985.01, -21029.46, -24010.44, -22546.92, 0.000, 0.000, 0.000, 10:39:35.953, 1583739575953
37, -26750.32, -31339.18, -20428.53, -16276.54, -20462.55, -21074.14, -24166.84, -22769.47, 0.000, 0.000, 0.000, 10:39:35.953, 1583739575953
38, -26624.66, -31317.05, -20413.67, -16254.23, -20348.56, -21056.84, -24084.70, -22727.52, 0.000, -0.018, 0.970, 10:39:35.953, 1583739575953
39, -26005.83, -31247.87, -20289.57, -16159.89, -19693.47, -21013.50, -23779.84, -22411.47, 0.000, 0.000, 0.000, 10:39:35.954, 1583739575954
40, -25879.90, -31253.35, -20247.97, -16112.90, -19474.36, -20992.60, -23753.02, -22310.66, 0.000, 0.000, 0.000, 10:39:35.958, 1583739575958
41, -26383.80, -31314.46, -20342.48, -16188.92, -19986.42, -21034.47, -24011.52, -22553.07, 0.000, 0.000, 0.000, 10:39:35.959, 1583739575959
42, -26747.10, -31335.27, -20429.29, -16287.69, -20465.32, -21079.68, -24167.62, -22774.24, 0.000, 0.000, 0.000, 10:39:35.959, 1583739575959
43, -26628.57, -31321.12, -20412.35, -16257.47, -20351.17, -21058.56, -24086.89, -22729.46, 0.000, 0.000, 0.000, 10:39:35.959, 1583739575959
44, -26011.64, -31245.14, -20288.83, -16164.65, -19696.40, -21015.87, -23785.52, -22413.81, 0.000, 0.000, 0.000, 10:39:35.959, 1583739575959
45, -25884.46, -31249.73, -20250.48, -16119.25, -19475.70, -20996.69, -23758.41, -22313.28, 0.000, 0.000, 0.000, 10:39:35.959, 1583739575959
46, -26383.53, -31320.87, -20342.75, -16187.85, -19980.98, -21033.77, -24008.21, -22549.74, 0.000, 0.000, 0.000, 10:39:35.959, 1583739575959
47, -26746.32, -31344.28, -20432.73, -16293.35, -20464.25, -21086.17, -24166.86, -22774.93, 0.000, 0.000, 0.000, 10:39:35.959, 1583739575959
48, -26626.67, -31324.00, -20417.29, -16267.55, -20356.94, -21066.72, -24088.16, -22734.52, 0.000, -0.016, 0.970, 10:39:35.960, 1583739575960
49, -26018.30, -31257.44, -20290.80, -16168.85, -19701.30, -21018.73, -23786.53, -22418.89, 0.000, 0.000, 0.000, 10:39:35.960, 1583739575960
50, -25888.39, -31261.93, -20248.38, -16120.55, -19476.73, -20995.91, -23755.46, -22315.56, 0.000, 0.000, 0.000, 10:39:35.960, 1583739575960
51, -26381.36, -31318.35, -20341.67, -16193.37, -19981.36, -21035.88, -24006.60, -22554.16, 0.000, 0.000, 0.000, 10:39:35.960, 1583739575960
52, -26737.76, -31338.84, -20430.16, -16292.54, -20460.94, -21084.89, -24161.01, -22775.94, 0.000, 0.000, 0.000, 10:39:35.960, 1583739575960
53, -26626.67, -31311.71, -20419.26, -16265.70, -20357.16, -21066.76, -24085.05, -22736.82, 0.000, 0.000, 0.000, 10:39:35.960, 1583739575960
54, -26019.06, -31245.68, -20290.73, -16165.29, -19700.25, -21020.18, -23781.29, -22420.72, 0.000, 0.000, 0.000, 10:39:35.960, 1583739575960
55, -25890.63, -31256.07, -20248.06, -16117.93, -19474.98, -20998.50, -23751.25, -22316.14, 0.000, 0.000, 0.000, 10:39:35.961, 1583739575961
56, -26382.28, -31308.51, -20335.19, -16188.25, -19974.48, -21035.03, -24000.72, -22549.80, 0.000, 0.000, 0.000, 10:39:35.961, 1583739575961
57, -26742.88, -31330.30, -20422.70, -16287.34, -20453.03, -21082.48, -24156.54, -22770.66, 0.000, 0.000, 0.000, 10:39:35.961, 1583739575961
58, -26629.91, -31320.20, -20409.58, -16260.98, -20350.53, -21060.84, -24079.58, -22729.64, 0.002, -0.022, 0.972, 10:39:35.961, 1583739575961
59, -26021.25, -31249.62, -20290.42, -16169.07, -19705.23, -21019.40, -23782.95, -22417.88, 0.000, 0.000, 0.000, 10:39:35.961, 1583739575961
60, -25883.30, -31255.87, -20250.66, -16116.70, -19477.89, -20994.63, -23752.79, -22309.30, 0.000, 0.000, 0.000, 10:39:35.961, 1583739575961
61, -26377.54, -31324.94, -20347.06, -16189.05, -19981.19, -21034.64, -24007.18, -22544.84, 0.000, 0.000, 0.000, 10:39:35.961, 1583739575961
62, -26729.11, -31329.72, -20430.14, -16284.59, -20454.46, -21078.61, -24158.10, -22760.11, 0.000, 0.000, 0.000, 10:39:35.962, 1583739575962
63, -26619.14, -31303.15, -20415.90, -16258.30, -20353.10, -21057.22, -24080.85, -22722.92, 0.000, 0.000, 0.000, 10:39:35.962, 1583739575962
64, -26016.78, -31243.22, -20296.75, -16166.99, -19707.15, -21017.59, -23787.51, -22415.47, 0.000, 0.000, 0.000, 10:39:35.962, 1583739575962
65, -25884.35, -31253.77, -20256.13, -16118.22, -19479.37, -20996.15, -23757.98, -22309.59, 0.000, 0.000, 0.000, 10:39:35.962, 1583739575962
66, -26373.67, -31314.97, -20346.30, -16188.00, -19977.85, -21033.84, -24007.02, -22543.59, 0.000, 0.000, 0.000, 10:39:35.962, 1583739575962
67, -26727.79, -31326.21, -20431.15, -16288.90, -20455.06, -21081.92, -24162.12, -22764.74, 0.000, 0.000, 0.000, 10:39:35.962, 1583739575962
68, -26623.47, -31306.50, -20417.60, -16263.04, -20358.01, -21059.72, -24090.31, -22729.24, 0.000, 0.000, 0.000, 10:39:35.962, 1583739575962
69, -26019.55, -31243.96, -20295.47, -16168.56, -19710.21, -21015.22, -23791.55, -22419.96, 0.002, -0.020, 0.974, 10:39:35.962, 1583739575962
70, -25887.43, -31252.05, -20256.71, -16122.71, -19479.46, -20997.70, -23760.64, -22317.01, 0.000, 0.000, 0.000, 10:39:35.962, 1583739575962
71, -26377.07, -31314.21, -20345.59, -16191.02, -19972.65, -21035.27, -24009.35, -22549.13, 0.000, 0.000, 0.000, 10:39:35.963, 1583739575963
72, -26726.43, -31323.20, -20424.29, -16284.79, -20442.90, -21077.81, -24156.45, -22763.82, 0.000, 0.000, 0.000, 10:39:35.963, 1583739575963
73, -26630.29, -31305.99, -20416.82, -16264.18, -20354.41, -21063.17, -24089.61, -22735.54, 0.000, 0.000, 0.000, 10:39:35.963, 1583739575963
74, -26023.76, -31235.53, -20291.36, -16166.90, -19704.65, -21017.54, -23789.01, -22422.73, 0.000, 0.000, 0.000, 10:39:35.963, 1583739575963
75, -25883.59, -31250.46, -20247.10, -16117.53, -19467.83, -20995.64, -23754.12, -22313.97, 0.000, 0.000, 0.000, 10:39:35.963, 1583739575963
76, -26372.15, -31318.55, -20338.46, -16186.80, -19963.44, -21032.70, -24005.15, -22545.89, 0.000, 0.000, 0.000, 10:39:35.963, 1583739575963
77, -26720.06, -31325.52, -20421.80, -16284.90, -20441.50, -21078.50, -24155.55, -22762.44, 0.000, 0.000, 0.000, 10:39:35.963, 1583739575963
78, -26621.44, -31307.73, -20415.39, -16266.88, -20355.33, -21063.68, -24087.42, -22735.08, 0.000, 0.000, 0.000, 10:39:35.963, 1583739575963
79, -26024.04, -31240.74, -20297.89, -16179.89, -19712.09, -21024.36, -23790.57, -22429.84, 0.002, -0.022, 0.984, 10:39:35.963, 1583739575963
80, -25880.68, -31250.64, -20254.14, -16128.30, -19475.28, -21000.51, -23755.48, -22317.50, 0.000, 0.000, 0.000, 10:39:35.963, 1583739575963
81, -26366.81, -31313.94, -20341.70, -16188.41, -19966.01, -21032.59, -24003.61, -22543.99, 0.000, 0.000, 0.000, 10:39:35.963, 1583739575963
82, -26728.01, -31328.56, -20427.39, -16290.15, -20444.13, -21081.29, -24156.22, -22762.88, 0.000, 0.000, 0.000, 10:39:35.964, 1583739575964
83, -26634.61, -31313.21, -20415.97, -16266.01, -20357.21, -21061.47, -24087.74, -22732.26, 0.000, 0.000, 0.000, 10:39:35.964, 1583739575964
84, -26033.70, -31248.61, -20293.17, -16166.68, -19712.63, -21016.65, -23792.89, -22422.98, 0.000, 0.000, 0.000, 10:39:35.964, 1583739575964
85, -25890.14, -31252.30, -20252.45, -16119.99, -19474.13, -20997.29, -23760.13, -22314.46, 0.000, 0.000, 0.000, 10:39:35.964, 1583739575964
86, -26375.77, -31310.90, -20340.58, -16182.71, -19962.57, -21028.99, -24005.86, -22541.87, 0.000, 0.000, 0.000, 10:39:35.964, 1583739575964
87, -26722.89, -31317.07, -20421.54, -16278.08, -20436.13, -21073.09, -24154.70, -22755.91, 0.000, 0.000, 0.000, 10:39:35.964, 1583739575964
88, -26630.36, -31312.69, -20411.90, -16257.07, -20355.02, -21057.55, -24089.01, -22730.49, 0.000, 0.000, 0.000, 10:39:35.964, 1583739575964
89, -26030.37, -31244.63, -20286.89, -16158.17, -19708.45, -21010.55, -23787.42, -22420.14, 0.002, -0.018, 0.980, 10:39:35.964, 1583739575964
90, -25883.52, -31244.74, -20248.04, -16112.21, -19467.99, -20989.70, -23751.61, -22308.76, 0.000, 0.000, 0.000, 10:39:35.964, 1583739575964
91, -26366.63, -31303.26, -20336.22, -16177.28, -19953.00, -21023.22, -23998.66, -22534.36, 0.000, 0.000, 0.000, 10:39:35.964, 1583739575964
92, -26720.19, -31319.13, -20415.75, -16275.33, -20430.81, -21068.69, -24148.24, -22750.07, 0.000, 0.000, 0.000, 10:39:35.964, 1583739575964
93, -26629.35, -31299.97, -20406.74, -16255.62, -20351.20, -21051.72, -24081.66, -22723.83, 0.000, 0.000, 0.000, 10:39:35.965, 1583739575965
94, -26035.54, -31233.10, -20291.18, -16165.23, -19711.49, -21011.62, -23789.07, -22420.10, 0.000, 0.000, 0.000, 10:39:35.965, 1583739575965
95, -25885.00, -31240.88, -20248.09, -16115.70, -19467.27, -20989.43, -23750.07, -22306.64, 0.000, 0.000, 0.000, 10:39:35.965, 1583739575965
96, -26363.81, -31305.79, -20334.63, -16181.21, -19953.94, -21021.21, -23995.22, -22531.81, 0.000, 0.000, 0.000, 10:39:35.965, 1583739575965
97, -26712.37, -31315.04, -20412.42, -16275.29, -20427.66, -21062.52, -24142.43, -22743.26, 0.000, 0.000, 0.000, 10:39:35.965, 1583739575965
98, -26629.89, -31298.54, -20407.75, -16260.42, -20355.11, -21049.33, -24084.92, -22721.75, 0.000, 0.000, 0.000, 10:39:35.965, 1583739575965
99, -26034.64, -31235.87, -20287.22, -16166.88, -19713.72, -21007.91, -23791.13, -22416.97, 0.008, -0.020, 0.972, 10:39:35.965, 1583739575965
100, -25877.31, -31242.53, -20238.68, -16105.48, -19458.96, -20979.79, -23746.29, -22296.65, 0.000, 0.000, 0.000, 10:39:35.965, 1583739575965
101, -26358.41, -31300.46, -20329.94, -16170.26, -19943.72, -21015.02, -23993.05, -22524.23, 0.000, 0.000, 0.000, 10:39:35.965, 1583739575965
102, -26714.18, -31314.50, -20416.46, -16275.47, -20426.30, -21067.17, -24145.56, -22746.77, 0.000, 0.000, 0.000, 10:39:35.965, 1583739575965
103, -26631.32, -31306.43, -20408.93, -16256.11, -20353.25, -21051.23, -24081.50, -22724.37, 0.000, 0.000, 0.000, 10:39:35.965, 1583739575965
104, -26037.81, -31235.91, -20289.33, -16160.69, -19713.79, -21006.88, -23786.64, -22417.77, 0.000, 0.000, 0.000, 10:39:35.965, 1583739575965
105, -25881.55, -31248.56, -20242.83, -16107.69, -19455.38, -20982.97, -23744.46, -22300.54, 0.000, 0.000, 0.000, 10:39:35.966, 1583739575966
106, -26359.63, -31307.71, -20327.50, -16169.27, -19934.83, -21015.06, -23986.77, -22524.37, 0.000, 0.000, 0.000, 10:39:35.966, 1583739575966
107, -26716.30, -31318.30, -20413.87, -16277.50, -20420.78, -21070.14, -24139.30, -22746.30, 0.000, 0.000, 0.000, 10:39:35.966, 1583739575966
108, -26638.34, -31306.41, -20407.46, -16256.94, -20351.64, -21053.55, -24079.64, -22725.38, 0.000, 0.000, 0.000, 10:39:35.966, 1583739575966
109, -26040.05, -31244.32, -20288.54, -16158.50, -19713.41, -21007.33, -23786.81, -22418.89, 0.002, -0.026, 0.974, 10:39:35.966, 1583739575966
110, -25877.55, -31247.80, -20243.91, -16107.38, -19457.77, -20985.83, -23743.99, -22302.39, 0.000, 0.000, 0.000, 10:39:35.966, 1583739575966
111, -26355.30, -31301.49, -20329.11, -16173.32, -19938.85, -21020.81, -23988.38, -22527.45, 0.000, 0.000, 0.000, 10:39:35.966, 1583739575966
112, -26713.73, -31324.70, -20414.05, -16278.57, -20423.32, -21072.26, -24141.87, -22748.60, 0.000, 0.000, 0.000, 10:39:35.967, 1583739575967
113, -26634.58, -31306.84, -20407.01, -16257.03, -20354.73, -21052.30, -24080.47, -22726.00, 0.000, 0.000, 0.000, 10:39:35.967, 1583739575967
114, -26043.34, -31242.93, -20289.21, -16163.71, -19716.72, -21008.31, -23788.65, -22422.96, 0.000, 0.000, 0.000, 10:39:35.967, 1583739575967
115, -25881.33, -31248.61, -20243.91, -16111.90, -19457.10, -20984.76, -23744.79, -22303.84, 0.000, 0.000, 0.000, 10:39:35.967, 1583739575967
116, -26358.07, -31304.87, -20326.99, -16170.59, -19932.84, -21014.62, -23985.70, -22522.89, 0.000, 0.000, 0.000, 10:39:35.967, 1583739575967
117, -26715.83, -31318.32, -20407.16, -16271.31, -20413.54, -21062.25, -24134.83, -22739.90, 0.000, 0.000, 0.000, 10:39:35.967, 1583739575967
118, -26637.82, -31310.70, -20403.50, -16255.84, -20350.03, -21045.60, -24075.71, -22719.81, 0.000, 0.000, 0.000, 10:39:35.967, 1583739575967
119, -26049.50, -31246.60, -20289.50, -16164.02, -19716.79, -21004.20, -23785.52, -22418.96, -0.004, -0.020, 0.974, 10:39:35.967, 1583739575967
120, -25881.42, -31249.53, -20237.71, -16105.59, -19450.46, -20976.04, -23737.46, -22295.51, 0.000, 0.000, 0.000, 10:39:35.967, 1583739575967
121, -26358.56, -31309.36, -20321.18, -16167.82, -19923.32, -21007.44, -23980.56, -22516.05, 0.000, 0.000, 0.000, 10:39:36.425, 1583739576425
122, -26713.96, -31319.46, -20403.48, -16268.56, -20405.11, -21053.62, -24130.16, -22731.88, 0.000, 0.000, 0.000, 10:39:36.425, 1583739576425
123, -26638.96, -31295.26, -20396.05, -16248.80, -20342.10, -21035.49, -24070.77, -22713.66, 0.000, 0.000, 0.000, 10:39:36.426, 1583739576426
124, -26044.16, -31235.87, -20278.75, -16154.03, -19706.93, -20993.25, -23780.29, -22412.34, 0.000, 0.000, 0.000, 10:39:36.426, 1583739576426
125, -25877.11, -31251.76, -20234.45, -16104.86, -19441.41, -20974.27, -23735.61, -22294.93, 0.000, 0.000, 0.000, 10:39:36.426, 1583739576426
126, -26361.13, -31308.89, -20322.85, -16169.94, -19920.97, -21012.43, -23980.74, -22520.10, 0.000, 0.000, 0.000, 10:39:36.426, 1583739576426
127, -26723.61, -31320.45, -20409.13, -16274.44, -20411.54, -21065.40, -24134.38, -22742.99, 0.000, 0.000, 0.000, 10:39:36.426, 1583739576426
128, -26651.24, -31312.18, -20408.71, -16260.87, -20358.24, -21053.04, -24082.48, -22730.47, 0.000, 0.000, 0.000, 10:39:36.427, 1583739576427
129, -26055.32, -31244.59, -20291.70, -16169.92, -19722.57, -21011.24, -23791.33, -22431.18, -0.004, -0.020, 0.970, 10:39:36.427, 1583739576427
130, -25878.69, -31235.80, -20242.16, -16115.70, -19451.20, -20987.59, -23740.44, -22306.50, 0.000, 0.000, 0.000, 10:39:36.427, 1583739576427
131, -26354.96, -31302.59, -20328.80, -16176.69, -19924.48, -21020.32, -23983.98, -22526.13, 0.000, 0.000, 0.000, 10:39:36.427, 1583739576427
132, -26718.40, -31326.95, -20414.43, -16277.97, -20414.27, -21070.01, -24136.51, -22746.74, 0.000, 0.000, 0.000, 10:39:36.432, 1583739576432
133, -26650.48, -31312.36, -20414.09, -16268.69, -20365.48, -21058.38, -24085.66, -22736.69, 0.000, 0.000, 0.000, 10:39:36.432, 1583739576432
134, -26057.55, -31248.34, -20299.27, -16176.85, -19731.54, -21016.90, -23796.43, -22437.51, 0.000, 0.000, 0.000, 10:39:36.432, 1583739576432
135, -25877.31, -31245.46, -20248.27, -16119.99, -19455.61, -20990.34, -23744.48, -22308.89, 0.000, 0.000, 0.000, 10:39:36.432, 1583739576432
136, -26352.06, -31303.26, -20333.45, -16178.17, -19926.02, -21021.50, -23986.57, -22528.35, 0.000, 0.000, 0.000, 10:39:36.432, 1583739576432
137, -26712.81, -31319.73, -20414.76, -16276.14, -20410.67, -21066.63, -24134.76, -22744.15, 0.000, 0.000, 0.000, 10:39:36.433, 1583739576433
138, -26649.67, -31307.80, -20413.58, -16264.04, -20361.86, -21053.87, -24084.63, -22733.76, 0.000, 0.000, 0.000, 10:39:36.433, 1583739576433
139, -26061.96, -31247.83, -20299.94, -16171.64, -19731.31, -21011.89, -23797.48, -22435.67, 0.002, -0.020, 0.968, 10:39:36.433, 1583739576433
140, -25878.94, -31245.14, -20248.47, -16111.61, -19452.61, -20982.74, -23741.33, -22304.04, 0.000, 0.000, 0.000, 10:39:36.433, 1583739576433
141, -26348.28, -31298.77, -20329.78, -16169.41, -19919.11, -21011.85, -23981.88, -22519.11, 0.000, 0.000, 0.000, 10:39:36.433, 1583739576433
142, -26713.11, -31320.31, -20414.52, -16274.17, -20407.30, -21062.27, -24137.02, -22740.46, 0.000, 0.000, 0.000, 10:39:36.433, 1583739576433
143, -26651.73, -31301.85, -20409.44, -16257.79, -20356.16, -21045.64, -24086.33, -22728.57, 0.000, 0.000, 0.000, 10:39:36.434, 1583739576434
144, -26068.59, -31244.29, -20294.94, -16168.09, -19728.41, -21008.27, -23799.55, -22434.76, 0.000, 0.000, 0.000, 10:39:36.434, 1583739576434
145, -25876.30, -31242.33, -20244.67, -16113.86, -19448.16, -20985.43, -23741.69, -22307.69, 0.000, 0.000, 0.000, 10:39:36.434, 1583739576434
146, -26347.10, -31310.90, -20330.36, -16173.81, -19916.97, -21018.33, -23982.17, -22527.23, 0.000, 0.000, 0.000, 10:39:36.435, 1583739576435
147, -26711.72, -31330.53, -20415.66, -16280.03, -20408.97, -21070.09, -24137.36, -22749.63, 0.000, 0.000, 0.000, 10:39:36.438, 1583739576438
148, -26650.41, -31318.86, -20414.27, -16269.21, -20367.71, -21056.17, -24089.50, -22741.07, 0.000, 0.000, 0.000, 10:39:36.439, 1583739576439
149, -26056.66, -31248.65, -20297.98, -16170.73, -19737.62, -21011.69, -23798.62, -22439.47, 0.004, -0.018, 0.968, 10:39:36.439, 1583739576439
150, -25871.56, -31248.32, -20251.44, -16116.81, -19456.97, -20991.60, -23746.00, -22313.10, 0.000, 0.000, 0.000, 10:39:36.440, 1583739576440
151, -26341.46, -31301.92, -20330.90, -16173.50, -19919.65, -21020.05, -23984.36, -22526.76, 0.000, 0.000, 0.000, 10:39:36.440, 1583739576440
152, -26706.94, -31323.00, -20414.94, -16280.63, -20411.52, -21070.94, -24137.69, -22747.79, 0.000, 0.000, 0.000, 10:39:36.441, 1583739576441
153, -26652.20, -31318.01, -20414.16, -16267.82, -20369.37, -21055.99, -24092.03, -22739.90, 0.000, 0.000, 0.000, 10:39:36.441, 1583739576441
154, -26065.84, -31254.91, -20300.59, -16176.99, -19740.05, -21013.68, -23806.04, -22443.05, 0.000, 0.000, 0.000, 10:39:36.441, 1583739576441
155, -25869.08, -31251.56, -20251.89, -16122.56, -19456.75, -20990.95, -23748.19, -22312.76, 0.000, 0.000, 0.000, 10:39:36.441, 1583739576441
156, -26338.65, -31310.68, -20332.46, -16172.81, -19917.35, -21017.10, -23984.99, -22525.33, 0.000, 0.000, 0.000, 10:39:36.442, 1583739576442
157, -26705.75, -31326.28, -20413.74, -16274.06, -20403.79, -21065.15, -24135.77, -22744.53, 0.000, 0.000, 0.000, 10:39:36.442, 1583739576442
158, -26652.13, -31314.21, -20414.09, -16263.91, -20367.13, -21054.54, -24088.34, -22740.46, 0.000, 0.000, 0.000, 10:39:36.442, 1583739576442
159, -26065.71, -31240.74, -20298.54, -16171.02, -19740.86, -21012.61, -23800.14, -22443.99, 0.000, 0.000, 0.000, 10:39:36.442, 1583739576442
160, -25866.06, -31241.95, -20243.01, -16111.92, -19446.44, -20985.36, -23737.91, -22307.53, -0.004, -0.018, 0.972, 10:39:36.442, 1583739576442
161, -26340.50, -31316.78, -20330.83, -16176.61, -19915.09, -21022.46, -23983.58, -22528.72, 0.000, 0.000, 0.000, 10:39:36.443, 1583739576443
162, -26707.90, -31327.47, -20411.34, -16277.19, -20406.22, -21069.76, -24133.96, -22747.26, 0.000, 0.000, 0.000, 10:39:36.443, 1583739576443
163, -26658.77, -31314.57, -20410.92, -16264.07, -20367.94, -21057.29, -24091.20, -22743.28, 0.000, 0.000, 0.000, 10:39:36.443, 1583739576443
164, -26071.07, -31252.16, -20295.63, -16171.24, -19742.18, -21013.95, -23805.03, -22446.45, 0.000, 0.000, 0.000, 10:39:36.443, 1583739576443
165, -25875.36, -31256.81, -20247.89, -16118.49, -19453.71, -20990.97, -23747.19, -22314.77, 0.000, 0.000, 0.000, 10:39:36.443, 1583739576443
166, -26348.28, -31316.49, -20334.70, -16177.95, -19916.57, -21023.51, -23989.93, -22530.02, 0.000, 0.000, 0.000, 10:39:36.444, 1583739576444
167, -26711.21, -31337.28, -20417.47, -16279.85, -20408.04, -21072.96, -24140.51, -22749.43, 0.000, 0.000, 0.000, 10:39:36.444, 1583739576444
168, -26662.08, -31320.29, -20418.63, -16268.05, -20374.26, -21060.28, -24097.01, -22745.83, 0.000, 0.000, 0.000, 10:39:36.444, 1583739576444
169, -26079.93, -31251.38, -20303.50, -16179.06, -19750.31, -21019.20, -23812.99, -22450.65, 0.000, 0.000, 0.000, 10:39:36.444, 1583739576444
170, -25877.33, -31241.23, -20253.68, -16126.25, -19456.28, -20997.16, -23752.57, -22316.27, -0.006, -0.016, 0.970, 10:39:36.444, 1583739576444
171, -26342.76, -31305.27, -20339.55, -16181.03, -19917.88, -21027.40, -23995.56, -22530.67, 0.000, 0.000, 0.000, 10:39:36.445, 1583739576445
172, -26706.58, -31325.37, -20420.08, -16274.66, -20411.17, -21070.07, -24147.13, -22747.01, 0.000, 0.000, 0.000, 10:39:36.445, 1583739576445
173, -26661.83, -31327.58, -20420.73, -16267.60, -20380.81, -21059.30, -24103.47, -22746.50, 0.000, 0.000, 0.000, 10:39:36.445, 1583739576445
174, -26080.10, -31264.03, -20306.09, -16178.53, -19754.72, -21019.51, -23816.70, -22452.97, 0.000, 0.000, 0.000, 10:39:36.445, 1583739576445
175, -25867.99, -31249.08, -20249.61, -16112.72, -19450.35, -20989.47, -23747.95, -22308.81, 0.000, 0.000, 0.000, 10:39:36.445, 1583739576445
176, -26335.25, -31305.76, -20333.09, -16171.29, -19908.86, -21021.05, -23987.60, -22523.90, 0.000, 0.000, 0.000, 10:39:36.445, 1583739576445
177, -26705.21, -31325.34, -20420.71, -16285.28, -20409.24, -21077.74, -24145.43, -22753.67, 0.000, 0.000, 0.000, 10:39:36.446, 1583739576446
178, -26661.05, -31312.94, -20421.25, -16275.13, -20383.54, -21065.27, -24105.62, -22754.52, 0.000, 0.000, 0.000, 10:39:36.447, 1583739576447
179, -26080.84, -31251.58, -20304.23, -16174.57, -19758.76, -21017.63, -23818.80, -22455.54, 0.000, 0.000, 0.000, 10:39:36.447, 1583739576447
180, -25872.66, -31249.01, -20247.82, -16108.75, -19453.01, -20987.15, -23750.65, -22312.72, 0.000, -0.016, 0.970, 10:39:36.448, 1583739576448
181, -26336.88, -31310.23, -20328.64, -16165.59, -19907.42, -21016.99, -23987.80, -22524.28, 0.000, 0.000, 0.000, 10:39:36.448, 1583739576448
182, -26708.12, -31329.63, -20413.31, -16276.12, -20404.86, -21073.13, -24142.54, -22749.65, 0.000, 0.000, 0.000, 10:39:36.448, 1583739576448
183, -26668.58, -31314.73, -20417.18, -16269.54, -20380.12, -21062.63, -24101.71, -22751.50, 0.000, 0.000, 0.000, 10:39:36.448, 1583739576448
184, -26087.14, -31243.76, -20302.69, -16174.97, -19755.63, -21018.22, -23815.31, -22455.86, 0.000, 0.000, 0.000, 10:39:36.449, 1583739576449
185, -25875.21, -31235.58, -20245.40, -16114.24, -19450.69, -20991.80, -23748.59, -22314.62, 0.000, 0.000, 0.000, 10:39:36.449, 1583739576449
186, -26337.78, -31322.26, -20327.14, -16175.15, -19903.42, -21025.12, -23986.53, -22529.28, 0.000, 0.000, 0.000, 10:39:36.449, 1583739576449
187, -26709.06, -31342.46, -20411.68, -16283.65, -20401.76, -21078.59, -24142.07, -22753.43, 0.000, 0.000, 0.000, 10:39:36.449, 1583739576449
188, -26670.88, -31325.54, -20415.10, -16271.98, -20384.70, -21066.05, -24106.42, -22754.43, 0.000, 0.000, 0.000, 10:39:36.449, 1583739576449
189, -26095.97, -31261.19, -20307.99, -16184.63, -19768.89, -21027.98, -23827.23, -22464.31, 0.000, 0.000, 0.000, 10:39:36.449, 1583739576449
190, -25877.62, -31255.27, -20250.14, -16121.82, -19456.12, -20998.12, -23755.28, -22316.81, 0.004, -0.016, 0.972, 10:39:36.450, 1583739576450
191, -26335.99, -31312.22, -20328.60, -16170.66, -19903.47, -21021.99, -23988.07, -22523.70, 0.000, 0.000, 0.000, 10:39:36.450, 1583739576450
192, -26703.52, -31325.88, -20414.90, -16280.14, -20407.48, -21075.21, -24143.04, -22748.91, 0.000, 0.000, 0.000, 10:39:36.450, 1583739576450
193, -26669.68, -31314.99, -20421.51, -16279.24, -20394.31, -21067.99, -24109.35, -22756.31, 0.000, 0.000, 0.000, 10:39:36.450, 1583739576450
194, -26093.94, -31258.42, -20310.05, -16185.32, -19775.84, -21023.87, -23827.34, -22463.21, 0.000, 0.000, 0.000, 10:39:36.450, 1583739576450
195, -25874.13, -31249.17, -20254.61, -16121.35, -19462.20, -20995.57, -23756.97, -22316.67, 0.000, 0.000, 0.000, 10:39:36.450, 1583739576450
196, -26330.11, -31304.04, -20333.81, -16173.48, -19908.01, -21023.69, -23993.46, -22525.01, 0.000, 0.000, 0.000, 10:39:36.451, 1583739576451
197, -26701.33, -31321.88, -20413.54, -16277.52, -20405.85, -21073.56, -24146.41, -22746.99, 0.000, 0.000, 0.000, 10:39:36.451, 1583739576451
198, -26666.12, -31324.78, -20415.39, -16266.50, -20387.45, -21059.14, -24105.04, -22748.89, 0.000, 0.000, 0.000, 10:39:36.451, 1583739576451
199, -26088.26, -31256.12, -20300.52, -16172.63, -19765.85, -21014.75, -23816.36, -22454.94, 0.000, 0.000, 0.000, 10:39:36.451, 1583739576451
200, -25868.25, -31245.90, -20246.63, -16118.11, -19450.53, -20993.21, -23744.99, -22309.88, 0.008, -0.020, 0.972, 10:39:36.451, 1583739576451
201, -26326.82, -31311.35, -20327.01, -16174.91, -19897.16, -21024.81, -23984.18, -22521.55, 0.000, 0.000, 0.000, 10:39:36.451, 1583739576451
202, -26695.83, -31324.81, -20409.98, -16280.14, -20399.36, -21075.95, -24138.99, -22746.56, 0.000, 0.000, 0.000, 10:39:36.451, 1583739576451
203, -26665.43, -31308.98, -20415.32, -16273.14, -20387.18, -21065.02, -24104.19, -22752.98, 0.000, 0.000, 0.000, 10:39:36.452, 1583739576452
204, -26090.14, -31240.99, -20302.07, -16177.63, -19769.38, -21020.16, -23821.97, -22459.88, 0.000, 0.000, 0.000, 10:39:36.452, 1583739576452
205, -25865.97, -31236.25, -20243.30, -16116.81, -19448.21, -20992.33, -23746.54, -22309.61, 0.000, 0.000, 0.000, 10:39:36.452, 1583739576452
206, -26319.31, -31299.77, -20317.40, -16163.98, -19885.88, -21014.35, -23975.20, -22509.08, 0.000, 0.000, 0.000, 10:39:36.452, 1583739576452
207, -26691.74, -31325.43, -20401.87, -16269.79, -20388.63, -21065.04, -24131.10, -22732.01, 0.000, 0.000, 0.000, 10:39:36.452, 1583739576452
208, -26663.82, -31311.44, -20409.02, -16263.13, -20379.67, -21052.68, -24098.46, -22739.64, 0.000, 0.000, 0.000, 10:39:36.452, 1583739576452
209, -26090.16, -31244.77, -20297.42, -16168.49, -19764.69, -21008.54, -23816.86, -22449.04, 0.000, 0.000, 0.000, 10:39:36.453, 1583739576453
210, -25853.28, -31229.52, -20236.31, -16103.09, -19438.87, -20978.47, -23736.59, -22294.68, 0.002, -0.022, 0.972, 10:39:36.453, 1583739576453
211, -26310.33, -31285.11, -20323.84, -16161.99, -19887.17, -21012.99, -23977.36, -22507.51, 0.000, 0.000, 0.000, 10:39:36.453, 1583739576453
212, -26685.52, -31319.73, -20409.73, -16269.81, -20394.51, -21066.43, -24135.64, -22735.12, 0.000, 0.000, 0.000, 10:39:36.453, 1583739576453
213, -26663.08, -31317.27, -20413.45, -16264.83, -20387.45, -21057.29, -24104.08, -22746.99, 0.000, 0.000, 0.000, 10:39:36.453, 1583739576453
214, -26086.70, -31244.43, -20298.58, -16171.04, -19769.76, -21012.14, -23817.59, -22453.69, 0.000, 0.000, 0.000, 10:39:36.453, 1583739576453
215, -25858.22, -31235.27, -20244.09, -16114.36, -19444.92, -20987.28, -23739.81, -22304.51, 0.000, 0.000, 0.000, 10:39:36.454, 1583739576454
216, -26315.76, -31297.29, -20326.23, -16170.68, -19888.96, -21018.11, -23978.03, -22512.30, 0.000, 0.000, 0.000, 10:39:36.454, 1583739576454
217, -26687.67, -31312.87, -20408.10, -16276.88, -20391.29, -21068.73, -24132.11, -22736.06, 0.000, 0.000, 0.000, 10:39:36.454, 1583739576454
218, -26666.52, -31304.71, -20413.91, -16270.28, -20387.67, -21057.94, -24100.03, -22747.82, 0.000, 0.000, 0.000, 10:39:36.454, 1583739576454
219, -26099.57, -31241.48, -20299.92, -16173.27, -19772.71, -21011.31, -23815.31, -22456.37, 0.000, 0.000, 0.000, 10:39:36.454, 1583739576454
220, -25862.62, -31232.94, -20243.04, -16111.34, -19443.11, -20984.20, -23737.53, -22303.31, 0.002, -0.018, 0.968, 10:39:36.455, 1583739576455
221, -26312.61, -31294.81, -20325.33, -16165.83, -19881.79, -21014.19, -23975.46, -22508.12, 0.000, 0.000, 0.000, 10:39:36.455, 1583739576455
222, -26684.23, -31310.19, -20410.18, -16274.80, -20389.71, -21067.21, -24133.27, -22732.37, 0.000, 0.000, 0.000, 10:39:36.455, 1583739576455
223, -26665.63, -31300.91, -20418.45, -16271.15, -20393.26, -21057.64, -24104.88, -22745.38, 0.000, 0.000, 0.000, 10:39:36.455, 1583739576455
224, -26089.11, -31236.12, -20303.01, -16172.76, -19777.36, -21009.21, -23819.85, -22450.79, 0.000, 0.000, 0.000, 10:39:36.455, 1583739576455
225, -25848.03, -31229.34, -20243.57, -16116.61, -19445.84, -20983.86, -23738.04, -22297.34, 0.000, 0.000, 0.000, 10:39:36.456, 1583739576456
226, -26303.78, -31289.51, -20322.54, -16169.61, -19880.33, -21012.31, -23972.18, -22501.14, 0.000, 0.000, 0.000, 10:39:36.456, 1583739576456
227, -26686.64, -31321.86, -20410.43, -16278.37, -20390.80, -21067.05, -24133.54, -22728.01, 0.000, 0.000, 0.000, 10:39:36.456, 1583739576456
228, -26669.25, -31307.51, -20411.93, -16268.36, -20390.58, -21053.67, -24100.79, -22738.85, 0.000, 0.000, 0.000, 10:39:36.456, 1583739576456
229, -26100.67, -31244.32, -20296.75, -16168.11, -19776.46, -21005.81, -23817.17, -22448.08, 0.000, 0.000, 0.000, 10:39:36.456, 1583739576456
230, -25858.89, -31235.60, -20236.89, -16105.75, -19441.70, -20976.37, -23735.07, -22291.06, -0.004, -0.018, 0.970, 10:39:36.457, 1583739576457
231, -26308.81, -31295.03, -20313.64, -16153.18, -19876.42, -21001.72, -23970.26, -22494.28, 0.000, 0.000, 0.000, 10:39:36.457, 1583739576457
232, -26688.54, -31317.38, -20401.87, -16264.38, -20386.58, -21058.49, -24130.54, -22724.77, 0.000, 0.000, 0.000, 10:39:36.457, 1583739576457
233, -26674.39, -31309.65, -20412.48, -16263.31, -20396.21, -21051.03, -24103.70, -22742.29, 0.000, 0.000, 0.000, 10:39:36.457, 1583739576457
234, -26106.26, -31238.33, -20304.41, -16174.66, -19786.59, -21011.47, -23824.32, -22457.40, 0.000, 0.000, 0.000, 10:39:36.457, 1583739576457
235, -25860.63, -31230.39, -20245.96, -16115.76, -19448.23, -20985.34, -23737.57, -22300.83, 0.000, 0.000, 0.000, 10:39:36.458, 1583739576458
236, -26308.58, -31294.25, -20325.92, -16165.72, -19882.52, -21013.46, -23970.14, -22503.67, 0.000, 0.000, 0.000, 10:39:36.458, 1583739576458
237, -26689.90, -31317.77, -20409.13, -16269.54, -20388.30, -21065.98, -24127.46, -22730.49, 0.000, 0.000, 0.000, 10:39:36.458, 1583739576458
238, -26680.52, -31309.65, -20419.17, -16269.12, -20399.03, -21059.57, -24103.67, -22750.74, 0.000, 0.000, 0.000, 10:39:36.458, 1583739576458
239, -26113.63, -31254.04, -20308.62, -16183.29, -19793.25, -21019.78, -23826.09, -22467.75, 0.000, 0.000, 0.000, 10:39:36.458, 1583739576458
240, -25860.88, -31239.85, -20244.09, -16119.88, -19449.01, -20991.69, -23738.02, -22308.98, -0.002, -0.022, 0.974, 10:39:36.458, 1583739576458
241, -26309.43, -31285.22, -20321.36, -16165.25, -19877.36, -21016.61, -23971.69, -22507.74, 0.000, 0.000, 0.000, 10:39:36.905, 1583739576905
242, -26689.52, -31323.82, -20408.08, -16272.65, -20386.62, -21067.66, -24131.70, -22733.60, 0.000, 0.000, 0.000, 10:39:36.905, 1583739576905
243, -26678.04, -31320.29, -20411.97, -16264.45, -20395.54, -21052.68, -24103.25, -22745.00, 0.000, 0.000, 0.000, 10:39:36.905, 1583739576905
244, -26114.41, -31251.34, -20301.28, -16171.13, -19787.24, -21008.09, -23824.28, -22457.62, 0.000, 0.000, 0.000, 10:39:36.905, 1583739576905
245, -25864.59, -31234.60, -20246.54, -16110.04, -19446.96, -20984.51, -23740.68, -22300.76, 0.000, 0.000, 0.000, 10:39:36.905, 1583739576905
246, -26310.10, -31296.44, -20326.32, -16162.48, -19876.42, -21013.08, -23975.24, -22500.92, 0.000, 0.000, 0.000, 10:39:36.905, 1583739576905
247, -26690.13, -31316.22, -20409.62, -16268.72, -20387.61, -21063.81, -24134.54, -22726.74, 0.000, 0.000, 0.000, 10:39:36.906, 1583739576906
248, -26683.33, -31310.88, -20421.31, -16270.48, -20405.18, -21057.49, -24113.71, -22749.63, 0.000, 0.000, 0.000, 10:39:36.906, 1583739576906
249, -26116.09, -31250.40, -20311.12, -16181.90, -19799.13, -21015.53, -23835.27, -22464.87, 0.000, 0.000, 0.000, 10:39:36.906, 1583739576906
250, -25856.92, -31236.58, -20243.91, -16112.97, -19447.71, -20982.97, -23742.34, -22298.52, 0.000, 0.000, 0.000, 10:39:36.906, 1583739576906
251, -26304.92, -31299.86, -20318.79, -16159.68, -19871.79, -21008.70, -23974.41, -22496.78, 0.000, -0.016, 0.974, 10:39:36.906, 1583739576906
252, -26689.32, -31323.09, -20402.67, -16267.31, -20381.10, -21061.91, -24134.90, -22723.36, 0.000, 0.000, 0.000, 10:39:36.906, 1583739576906
253, -26686.22, -31311.37, -20413.82, -16267.89, -20400.01, -21053.64, -24112.93, -22745.18, 0.000, 0.000, 0.000, 10:39:36.906, 1583739576906
254, -26122.01, -31249.71, -20300.14, -16175.33, -19791.60, -21007.58, -23830.15, -22459.12, 0.000, 0.000, 0.000, 10:39:36.911, 1583739576911
255, -25859.40, -31246.22, -20238.74, -16112.70, -19442.35, -20980.60, -23736.35, -22296.60, 0.000, 0.000, 0.000, 10:39:36.911, 1583739576911
0, -26303.60, -31307.13, -20320.93, -16163.75, -19864.49, -21009.77, -23969.96, -22497.61, 0.000, 0.000, 0.000, 10:39:36.911, 1583739576911
1, -26686.51, -31313.12, -20401.98, -16269.10, -20372.74, -21060.80, -24128.10, -22723.83, 0.000, 0.000, 0.000, 10:39:36.911, 1583739576911
2, -26685.70, -31292.26, -20410.88, -16263.11, -20396.26, -21050.07, -24106.51, -22744.29, 0.000, 0.000, 0.000, 10:39:36.911, 1583739576911
3, -26122.44, -31254.40, -20298.56, -16170.79, -19792.18, -21005.63, -23825.82, -22458.61, 0.000, 0.000, 0.000, 10:39:36.911, 1583739576911
4, -25859.71, -31247.85, -20237.67, -16111.07, -19437.66, -20979.77, -23731.96, -22295.17, 0.000, 0.000, 0.000, 10:39:36.911, 1583739576911
5, -26304.85, -31304.78, -20316.75, -16161.56, -19857.80, -21006.30, -23965.65, -22493.30, 0.004, -0.016, 0.970, 10:39:36.912, 1583739576912
6, -26691.63, -31320.85, -20404.73, -16270.84, -20373.88, -21060.51, -24129.62, -22724.28, 0.000, 0.000, 0.000, 10:39:36.912, 1583739576912
7, -26690.78, -31311.08, -20413.69, -16271.18, -20401.26, -21053.20, -24110.16, -22749.16, 0.000, 0.000, 0.000, 10:39:36.912, 1583739576912
8, -26126.69, -31250.22, -20302.71, -16174.84, -19797.03, -21007.93, -23831.92, -22464.82, 0.000, 0.000, 0.000, 10:39:36.912, 1583739576912
9, -25859.94, -31237.50, -20238.16, -16109.62, -19440.12, -20979.66, -23735.67, -22297.47, 0.000, 0.000, 0.000, 10:39:36.912, 1583739576912
10, -26301.68, -31296.84, -20318.25, -16159.91, -19860.24, -21007.22, -23969.14, -22495.35, 0.000, 0.000, 0.000, 10:39:36.912, 1583739576912
11, -26687.00, -31319.96, -20409.69, -16271.42, -20379.54, -21062.76, -24135.19, -22726.67, 0.000, 0.000, 0.000, 10:39:36.913, 1583739576913
12, -26684.79, -31310.41, -20419.28, -16268.29, -20406.72, -21053.38, -24113.44, -22749.81, 0.000, 0.000, 0.000, 10:39:36.913, 1583739576913
13, -26124.47, -31243.09, -20308.77, -16174.06, -19801.72, -21008.54, -23832.64, -22467.37, 0.000, 0.000, 0.000, 10:39:36.913, 1583739576913
14, -25853.72, -31218.81, -20241.56, -16112.41, -19439.07, -20979.19, -23732.34, -22297.81, 0.000, 0.000, 0.000, 10:39:36.914, 1583739576914
15, -26297.23, -31299.39, -20312.10, -16158.34, -19852.62, -21000.76, -23960.89, -22489.21, 0.000, -0.018, 0.968, 10:39:36.914, 1583739576914
16, -26685.26, -31320.47, -20397.49, -16266.84, -20367.33, -21053.17, -24123.16, -22717.37, 0.000, 0.000, 0.000, 10:39:36.914, 1583739576914
17, -26687.80, -31304.40, -20411.30, -16270.37, -20401.06, -21047.01, -24106.11, -22744.15, 0.000, 0.000, 0.000, 10:39:36.915, 1583739576915
18, -26131.63, -31249.32, -20304.84, -16181.92, -19804.65, -21006.86, -23830.09, -22465.22, 0.000, 0.000, 0.000, 10:39:36.915, 1583739576915
19, -25859.94, -31248.54, -20239.10, -16118.65, -19441.88, -20980.13, -23731.83, -22297.00, 0.000, 0.000, 0.000, 10:39:36.915, 1583739576915
20, -26297.52, -31304.58, -20314.76, -16163.13, -19851.70, -21003.42, -23962.68, -22489.90, 0.000, 0.000, 0.000, 10:39:36.915, 1583739576915
21, -26683.78, -31319.29, -20397.96, -16263.55, -20363.58, -21051.03, -24123.48, -22714.87, 0.000, 0.000, 0.000, 10:39:36.915, 1583739576915
22, -26691.33, -31307.04, -20408.71, -16262.61, -20397.35, -21043.21, -24102.33, -22741.49, 0.000, 0.000, 0.000, 10:39:36.915, 1583739576915
23, -26133.70, -31246.31, -20299.52, -16174.48, -19798.37, -21001.59, -23824.50, -22461.78, 0.000, 0.000, 0.000, 10:39:36.915, 1583739576915
24, -25856.70, -31236.45, -20240.87, -16115.47, -19436.29, -20978.61, -23727.43, -22294.39, 0.000, 0.000, 0.000, 10:39:36.915, 1583739576915
25, -26293.00, -31292.46, -20317.65, -16162.01, -19848.77, -21006.46, -23959.10, -22489.52, -0.002, -0.018, 0.968, 10:39:36.916, 1583739576916
26, -26683.38, -31310.14, -20403.99, -16271.62, -20370.08, -21061.62, -24123.83, -22721.42, 0.000, 0.000, 0.000, 10:39:36.916, 1583739576916
27, -26688.65, -31300.89, -20415.30, -16271.04, -20406.63, -21053.24, -24104.84, -22748.85, 0.000, 0.000, 0.000, 10:39:36.916, 1583739576916
28, -26131.00, -31243.33, -20305.22, -16176.87, -19807.31, -21008.65, -23829.24, -22466.16, 0.000, 0.000, 0.000, 10:39:36.916, 1583739576916
29, -25852.18, -31236.54, -20236.42, -16111.54, -19434.82, -20978.79, -23725.53, -22291.60, 0.000, 0.000, 0.000, 10:39:36.916, 1583739576916
30, -26289.21, -31292.91, -20309.76, -16155.06, -19840.39, -20999.96, -23952.20, -22481.38, 0.000, 0.000, 0.000, 10:39:36.916, 1583739576916
31, -26684.54, -31318.23, -20399.97, -16267.80, -20359.11, -21054.87, -24119.41, -22715.83, 0.000, 0.000, 0.000, 10:39:36.916, 1583739576916
32, -26697.06, -31311.73, -20415.90, -16274.17, -20405.26, -21052.41, -24106.96, -22749.58, 0.000, 0.000, 0.000, 10:39:36.916, 1583739576916
33, -26141.62, -31253.84, -20308.21, -16185.01, -19812.23, -21012.29, -23832.72, -22472.80, 0.000, 0.000, 0.000, 10:39:36.917, 1583739576917
34, -25855.49, -31237.86, -20232.44, -16111.83, -19431.29, -20976.31, -23721.30, -22292.27, 0.000, 0.000, 0.000, 10:39:36.917, 1583739576917
35, -26293.05, -31295.82, -20305.31, -16153.20, -19836.90, -20997.83, -23950.27, -22481.76, 0.000, -0.018, 0.968, 10:39:36.917, 1583739576917
36, -26680.67, -31312.76, -20392.70, -16259.31, -20355.82, -21049.71, -24116.53, -22710.31, 0.000, 0.000, 0.000, 10:39:36.917, 1583739576917
37, -26695.74, -31303.79, -20411.01, -16267.62, -20400.59, -21047.70, -24104.37, -22743.59, 0.000, 0.000, 0.000, 10:39:36.917, 1583739576917
38, -26140.95, -31238.28, -20302.87, -16176.02, -19805.81, -21003.84, -23825.86, -22463.59, 0.000, 0.000, 0.000, 10:39:36.917, 1583739576917
39, -25853.55, -31228.83, -20234.07, -16108.66, -19428.34, -20973.47, -23718.22, -22286.86, 0.000, 0.000, 0.000, 10:39:36.917, 1583739576917
40, -26289.09, -31293.02, -20311.92, -16157.49, -19833.51, -21001.32, -23951.82, -22480.22, 0.000, 0.000, 0.000, 10:39:36.917, 1583739576917
41, -26681.70, -31313.68, -20401.53, -16267.58, -20360.25, -21056.79, -24121.11, -22713.24, 0.000, 0.000, 0.000, 10:39:36.917, 1583739576917
42, -26699.40, -31300.09, -20423.84, -16279.13, -20414.05, -21056.88, -24114.16, -22752.58, 0.000, 0.000, 0.000, 10:39:36.917, 1583739576917
43, -26146.80, -31240.23, -20314.16, -16184.41, -19820.56, -21010.35, -23839.70, -22471.53, 0.000, 0.000, 0.000, 10:39:36.918, 1583739576918
44, -25852.63, -31222.19, -20239.37, -16111.32, -19433.16, -20977.18, -23728.03, -22289.58, 0.000, 0.000, 0.000, 10:39:36.918, 1583739576918
45, -26285.72, -31293.49, -20316.44, -16159.55, -19836.10, -21004.67, -23958.63, -22482.93, 0.004, -0.018, 0.962, 10:39:36.918, 1583739576918
46, -26678.75, -31316.25, -20403.32, -16268.81, -20362.08, -21057.78, -24124.71, -22716.32, 0.000, 0.000, 0.000, 10:39:36.918, 1583739576918
47, -26698.38, -31307.57, -20419.32, -16275.78, -20412.82, -21055.19, -24115.97, -22753.87, 0.000, 0.000, 0.000, 10:39:36.918, 1583739576918
48, -26145.62, -31241.99, -20309.55, -16184.76, -19819.38, -21011.87, -23840.46, -22475.19, 0.000, 0.000, 0.000, 10:39:36.919, 1583739576919
49, -25851.45, -31232.67, -20242.05, -16124.70, -19436.81, -20988.76, -23732.14, -22300.51, 0.000, 0.000, 0.000, 10:39:36.919, 1583739576919
50, -26280.60, -31287.93, -20317.00, -16170.84, -19836.19, -21015.58, -23960.42, -22492.31, 0.000, 0.000, 0.000, 10:39:36.919, 1583739576919
51, -26679.09, -31312.74, -20405.82, -16284.77, -20363.31, -21073.45, -24131.93, -22729.60, 0.000, 0.000, 0.000, 10:39:36.919, 1583739576919
52, -26699.36, -31302.52, -20421.89, -16287.63, -20420.13, -21066.83, -24120.24, -22764.65, 0.000, 0.000, 0.000, 10:39:36.919, 1583739576919
53, -26148.90, -31242.80, -20315.03, -16193.26, -19830.20, -21021.52, -23844.71, -22485.79, 0.000, 0.000, 0.000, 10:39:36.920, 1583739576920
54, -25849.63, -31226.93, -20245.07, -16123.14, -19441.35, -20987.79, -23731.54, -22301.86, 0.000, 0.000, 0.000, 10:39:36.920, 1583739576920
55, -26272.71, -31274.34, -20315.46, -16161.25, -19828.50, -21005.59, -23953.29, -22484.00, 0.002, -0.018, 0.968, 10:39:36.920, 1583739576920
56, -26669.59, -31309.52, -20399.47, -16264.47, -20350.79, -21054.83, -24116.84, -22712.50, 0.000, 0.000, 0.000, 10:39:36.920, 1583739576920
57, -26696.19, -31304.58, -20411.52, -16266.79, -20405.00, -21046.16, -24107.34, -22747.73, 0.000, 0.000, 0.000, 10:39:36.920, 1583739576920
58, -26149.89, -31239.85, -20303.94, -16176.87, -19817.10, -21003.31, -23836.14, -22472.49, 0.000, 0.000, 0.000, 10:39:36.921, 1583739576921
59, -25848.43, -31228.18, -20236.24, -16112.39, -19429.19, -20977.80, -23726.80, -22292.89, 0.000, 0.000, 0.000, 10:39:36.921, 1583739576921
60, -26274.12, -31292.38, -20314.43, -16158.99, -19828.86, -21006.66, -23959.06, -22484.20, 0.000, 0.000, 0.000, 10:39:36.921, 1583739576921
61, -26673.77, -31311.24, -20406.47, -16272.65, -20358.93, -21065.56, -24130.09, -22721.93, 0.000, 0.000, 0.000, 10:39:36.921, 1583739576921
62, -26704.50, -31304.11, -20427.26, -16285.23, -20425.56, -21064.60, -24125.20, -22765.23, 0.000, 0.000, 0.000, 10:39:36.921, 1583739576921
63, -26151.56, -31236.18, -20317.15, -16190.13, -19836.01, -21016.32, -23847.25, -22485.23, 0.000, 0.000, 0.000, 10:39:36.921, 1583739576921
64, -25844.85, -31222.35, -20242.05, -16116.17, -19437.90, -20980.82, -23728.63, -22294.43, 0.000, 0.000, 0.000, 10:39:36.921, 1583739576921
65, -26268.78, -31296.49, -20312.28, -16157.38, -19826.58, -21000.56, -23950.27, -22476.60, 0.002, -0.020, 0.970, 10:39:36.922, 1583739576922
66, -26666.21, -31314.77, -20400.86, -16269.48, -20355.51, -21056.97, -24120.26, -22712.48, 0.000, 0.000, 0.000, 10:39:36.922, 1583739576922
67, -26693.10, -31301.29, -20418.85, -16279.42, -20419.14, -21055.72, -24117.46, -22756.44, 0.000, 0.000, 0.000, 10:39:36.922, 1583739576922
68, -26153.31, -31242.53, -20312.95, -16193.84, -19834.67, -21017.54, -23847.48, -22488.47, 0.000, 0.000, 0.000, 10:39:36.922, 1583739576922
69, -25844.52, -31240.07, -20244.67, -16130.00, -19442.11, -20992.47, -23730.76, -22305.56, 0.000, 0.000, 0.000, 10:39:36.922, 1583739576922
70, -26267.75, -31299.46, -20317.49, -16172.13, -19826.40, -21016.14, -23957.34, -22490.62, 0.000, 0.000, 0.000, 10:39:36.922, 1583739576922
71, -26671.87, -31317.83, -20406.22, -16280.00, -20355.71, -21070.07, -24127.86, -22726.29, 0.000, 0.000, 0.000, 10:39:36.922, 1583739576922
72, -26699.54, -31301.76, -20418.56, -16285.50, -20419.66, -21063.48, -24117.71, -22763.26, 0.000, 0.000, 0.000, 10:39:36.923, 1583739576923
73, -26158.09, -31244.29, -20312.39, -16199.92, -19837.89, -21023.94, -23848.04, -22491.64, 0.000, 0.000, 0.000, 10:39:36.923, 1583739576923
74, -25846.33, -31230.91, -20239.15, -16127.97, -19437.93, -20990.84, -23726.67, -22300.25, 0.000, 0.000, 0.000, 10:39:36.923, 1583739576923
75, -26264.75, -31284.42, -20307.47, -16162.23, -19819.02, -21007.64, -23949.87, -22478.52, 0.006, -0.020, 0.962, 10:39:36.923, 1583739576923
76, -26665.43, -31307.28, -20392.32, -16265.79, -20344.69, -21056.44, -24119.32, -22710.02, 0.000, 0.000, 0.000, 10:39:36.923, 1583739576923
77, -26700.77, -31304.09, -20410.99, -16273.88, -20411.59, -21051.59, -24116.71, -22752.60, 0.000, 0.000, 0.000, 10:39:36.923, 1583739576923
78, -26158.60, -31248.56, -20306.13, -16182.64, -19832.66, -21006.97, -23845.49, -22479.04, 0.000, 0.000, 0.000, 10:39:36.923, 1583739576923
79, -25842.30, -31235.78, -20236.42, -16118.33, -19433.59, -20979.39, -23726.13, -22291.10, 0.000, 0.000, 0.000, 10:39:36.923, 1583739576923
80, -26258.54, -31286.23, -20309.31, -16162.90, -19817.82, -21002.95, -23951.39, -22473.81, 0.000, 0.000, 0.000, 10:39:36.924, 1583739576924
81, -26660.33, -31302.41, -20398.96, -16273.48, -20348.33, -21056.59, -24122.34, -22709.53, 0.000, 0.000, 0.000, 10:39:36.924, 1583739576924
82, -26698.91, -31311.71, -20419.28, -16282.26, -20420.46, -21051.41, -24118.63, -22754.54, 0.000, 0.000, 0.000, 10:39:36.924, 1583739576924
83, -26159.21, -31254.69, -20313.69, -16184.36, -19839.77, -21003.75, -23845.76, -22479.46, 0.000, 0.000, 0.000, 10:39:36.924, 1583739576924
84, -25841.81, -31236.52, -20245.11, -16121.44, -19438.55, -20979.08, -23726.17, -22292.49, 0.000, 0.000, 0.000, 10:39:36.924, 1583739576924
85, -26260.39, -31289.40, -20319.84, -16166.68, -19822.09, -21006.26, -23955.32, -22478.97, 0.000, 0.000, 0.000, 10:39:36.924, 1583739576924
86, -26661.29, -31310.50, -20403.41, -16271.82, -20351.20, -21057.40, -24125.40, -22714.42, 0.010, -0.016, 0.966, 10:39:36.924, 1583739576924
87, -26702.00, -31308.02, -20419.35, -16277.37, -20424.13, -21052.28, -24121.13, -22760.76, 0.000, 0.000, 0.000, 10:39:36.924, 1583739576924
88, -26164.86, -31248.72, -20314.09, -16189.46, -19847.21, -21011.06, -23849.91, -22490.93, 0.000, 0.000, 0.000, 10:39:36.925, 1583739576925
89, -25843.53, -31234.91, -20238.59, -16120.41, -19439.54, -20981.20, -23724.34, -22297.72, 0.000, 0.000, 0.000, 10:39:36.925, 1583739576925
90, -26261.15, -31291.19, -20310.43, -16158.03, -19816.14, -21003.44, -23948.02, -22479.73, 0.000, 0.000, 0.000, 10:39:36.925, 1583739576925
91, -26661.65, -31311.13, -20392.48, -16262.23, -20344.18, -21055.14, -24119.03, -22712.84, 0.000, 0.000, 0.000, 10:39:36.925, 1583739576925
92, -26701.10, -31310.30, -20410.85, -16272.00, -20419.77, -21053.87, -24118.43, -22760.15, 0.000, 0.000, 0.000, 10:39:36.925, 1583739576925
93, -26165.53, -31250.76, -20305.24, -16182.46, -19841.24, -21010.30, -23850.34, -22490.03, 0.000, 0.000, 0.000, 10:39:36.925, 1583739576925
94, -25847.71, -31232.61, -20233.47, -16119.38, -19429.57, -20983.50, -23725.41, -22299.53, 0.000, 0.000, 0.000, 10:39:36.925, 1583739576925
95, -26260.44, -31293.80, -20305.26, -16162.28, -19804.70, -21007.53, -23948.71, -22479.51, 0.000, 0.000, 0.000, 10:39:36.925, 1583739576925
96, -26662.26, -31305.83, -20394.13, -16271.26, -20340.11, -21061.65, -24123.07, -22716.57, 0.006, -0.018, 0.972, 10:39:36.926, 1583739576926
97, -26706.60, -31306.66, -20417.63, -16285.91, -20424.51, -21061.96, -24126.36, -22766.95, 0.000, 0.000, 0.000, 10:39:36.926, 1583739576926
98, -26170.36, -31245.48, -20313.55, -16188.97, -19849.73, -21014.24, -23856.62, -22493.45, 0.000, 0.000, 0.000, 10:39:36.926, 1583739576926
99, -25843.62, -31227.78, -20239.26, -16112.25, -19435.80, -20980.02, -23728.92, -22294.70, 0.000, 0.000, 0.000, 10:39:36.926, 1583739576926
100, -26257.69, -31293.29, -20314.67, -16156.42, -19813.08, -21003.84, -23956.58, -22473.05, 0.000, 0.000, 0.000, 10:39:36.926, 1583739576926
101, -26662.30, -31312.38, -20404.79, -16270.53, -20348.51, -21059.72, -24134.27, -22710.53, 0.000, 0.000, 0.000, 10:39:36.926, 1583739576926
102, -26706.45, -31305.56, -20426.10, -16281.97, -20433.47, -21058.63, -24137.18, -22761.03, 0.000, 0.000, 0.000, 10:39:36.926, 1583739576926
103, -26172.37, -31243.96, -20326.21, -16197.28, -19864.53, -21018.82, -23871.71, -22495.98, 0.000, 0.000, 0.000, 10:39:36.926, 1583739576926
104, -25836.07, -31222.01, -20249.32, -16121.28, -19447.38, -20984.58, -23741.15, -22296.24, 0.000, 0.000, 0.000, 10:39:36.927, 1583739576927
105, -26247.34, -31284.98, -20319.26, -16157.32, -19817.59, -21005.30, -23961.74, -22473.14, 0.000, 0.000, 0.000, 10:39:37.385, 1583739577385
106, -26656.51, -31311.48, -20405.00, -16266.50, -20351.46, -21057.31, -24134.16, -22708.95, 0.004, -0.020, 0.972, 10:39:37.386, 1583739577386
107, -26706.67, -31305.79, -20423.06, -16279.42, -20436.80, -21054.67, -24135.50, -22759.60, 0.000, 0.000, 0.000, 10:39:37.386, 1583739577386
108, -26181.65, -31245.90, -20326.27, -16198.84, -19871.28, -21017.10, -23874.72, -22499.27, 0.000, 0.000, 0.000, 10:39:37.386, 1583739577386
109, -25845.23, -31224.96, -20245.36, -16126.83, -19445.93, -20983.28, -23739.50, -22300.33, 0.000, 0.000, 0.000, 10:39:37.386, 1583739577386
110, -26252.26, -31286.03, -20307.36, -16155.42, -19804.23, -20995.98, -23954.65, -22471.73, 0.000, 0.000, 0.000, 10:39:37.387, 1583739577387
111, -26660.33, -31306.50, -20392.41, -16261.72, -20333.87, -21050.07, -24126.03, -22709.73, 0.000, 0.000, 0.000, 10:39:37.387, 1583739577387
112, -26717.80, -31306.54, -20417.80, -16281.08, -20428.80, -21056.59, -24131.28, -22769.21, 0.000, 0.000, 0.000, 10:39:37.387, 1583739577387
113, -26188.42, -31265.82, -20316.10, -16197.33, -19858.32, -21018.08, -23864.67, -22508.59, 0.000, 0.000, 0.000, 10:39:37.387, 1583739577387
114, -25849.93, -31241.95, -20233.89, -16125.93, -19430.64, -20988.06, -23726.15, -22309.30, 0.000, 0.000, 0.000, 10:39:37.387, 1583739577387
115, -26254.07, -31296.15, -20297.22, -16155.59, -19787.71, -21004.04, -23939.23, -22478.01, 0.000, 0.000, 0.000, 10:39:37.387, 1583739577387
116, -26666.55, -31317.45, -20382.64, -16260.80, -20320.10, -21056.10, -24112.32, -22713.64, 0.004, -0.022, 0.974, 10:39:37.387, 1583739577387
117, -26721.64, -31316.63, -20405.11, -16276.76, -20415.30, -21055.46, -24118.43, -22767.69, 0.000, 0.000, 0.000, 10:39:37.387, 1583739577387
118, -26190.03, -31252.21, -20306.76, -16191.42, -19851.61, -21013.52, -23854.52, -22501.97, 0.000, 0.000, 0.000, 10:39:37.388, 1583739577388
119, -25844.45, -31217.94, -20234.72, -16120.84, -19430.30, -20984.17, -23722.06, -22300.38, 0.000, 0.000, 0.000, 10:39:37.388, 1583739577388
120, -26249.75, -31277.62, -20307.36, -16157.16, -19796.69, -21007.00, -23946.07, -22473.63, 0.000, 0.000, 0.000, 10:39:37.388, 1583739577388
121, -26664.49, -31314.28, -20405.29, -16276.94, -20343.46, -21069.65, -24131.41, -22719.23, 0.000, 0.000, 0.000, 10:39:37.388, 1583739577388
122, -26718.20, -31311.24, -20433.88, -16295.11, -20444.89, -21070.83, -24140.31, -22777.03, 0.000, 0.000, 0.000, 10:39:37.389, 1583739577389
123, -26191.26, -31245.41, -20331.79, -16206.94, -19880.76, -21028.23, -23875.48, -22513.19, 0.000, 0.000, 0.000, 10:39:37.389, 1583739577389
124, -25847.98, -31226.46, -20250.50, -16134.14, -19450.85, -20997.65, -23739.34, -22310.55, 0.000, 0.000, 0.000, 10:39:37.389, 1583739577389
125, -26252.37, -31284.98, -20318.34, -16165.27, -19810.04, -21014.91, -23959.68, -22480.40, 0.000, 0.000, 0.000, 10:39:37.389, 1583739577389
126, -26664.71, -31324.27, -20409.31, -16277.34, -20347.71, -21069.78, -24138.36, -22720.12, 0.000, -0.022, 0.972, 10:39:37.389, 1583739577389
127, -26726.85, -31322.86, -20431.21, -16290.87, -20448.63, -21068.71, -24145.67, -22776.43, 0.000, 0.000, 0.000, 10:39:37.389, 1583739577389
128, -26200.51, -31258.82, -20328.02, -16201.95, -19886.14, -21024.23, -23880.92, -22511.02, 0.000, 0.000, 0.000, 10:39:37.389, 1583739577389
129, -25849.12, -31237.41, -20250.37, -16131.12, -19455.00, -20993.54, -23744.86, -22308.36, 0.000, 0.000, 0.000, 10:39:37.390, 1583739577390
130, -26247.81, -31295.03, -20315.19, -16159.46, -19809.43, -21008.70, -23960.67, -22476.33, 0.000, 0.000, 0.000, 10:39:37.392, 1583739577392
131, -26658.72, -31312.80, -20405.38, -16269.41, -20347.69, -21062.70, -24137.29, -22713.42, 0.000, 0.000, 0.000, 10:39:37.393, 1583739577393
132, -26717.96, -31301.52, -20430.66, -16288.50, -20447.35, -21064.06, -24146.19, -22770.32, 0.000, 0.000, 0.000, 10:39:37.393, 1583739577393
133, -26196.20, -31242.04, -20330.45, -16203.76, -19886.21, -21022.24, -23881.70, -22509.57, 0.000, 0.000, 0.000, 10:39:37.393, 1583739577393
134, -25842.66, -31225.68, -20250.28, -16132.86, -19448.54, -20990.30, -23736.08, -22302.59, 0.000, 0.000, 0.000, 10:39:37.393, 1583739577393
135, -26241.19, -31288.39, -20316.60, -16164.76, -19800.40, -21008.34, -23951.08, -22472.40, 0.000, 0.000, 0.000, 10:39:37.393, 1583739577393
136, -26650.14, -31306.01, -20394.33, -16265.05, -20330.12, -21055.54, -24121.46, -22707.45, 0.000, -0.022, 0.970, 10:39:37.393, 1583739577393
137, -26716.12, -31295.77, -20418.32, -16283.09, -20433.49, -21058.63, -24131.12, -22770.59, 0.000, 0.000, 0.000, 10:39:37.393, 1583739577393
138, -26199.08, -31243.96, -20321.69, -16202.20, -19879.22, -21022.20, -23870.99, -22515.56, 0.000, 0.000, 0.000, 10:39:37.394, 1583739577394
139, -25842.73, -31225.65, -20242.66, -16133.38, -19440.07, -20993.67, -23728.59, -22311.46, 0.000, 0.000, 0.000, 10:39:37.394, 1583739577394
140, -26239.88, -31283.59, -20306.34, -16163.15, -19787.57, -21010.42, -23942.05, -22478.52, 0.000, 0.000, 0.000, 10:39:37.394, 1583739577394
141, -26653.43, -31321.83, -20394.36, -16272.67, -20326.94, -21064.75, -24120.55, -22718.27, 0.000, 0.000, 0.000, 10:39:37.394, 1583739577394
142, -26717.75, -31311.60, -20419.35, -16289.01, -20434.30, -21064.35, -24131.08, -22776.96, 0.000, 0.000, 0.000, 10:39:37.394, 1583739577394
143, -26201.99, -31248.27, -20316.62, -16198.40, -19876.87, -21019.49, -23866.46, -22513.32, 0.000, 0.000, 0.000, 10:39:37.394, 1583739577394
144, -25844.99, -31229.48, -20235.28, -16123.72, -19435.06, -20985.07, -23720.36, -22300.56, 0.000, 0.000, 0.000, 10:39:37.394, 1583739577394
145, -26245.22, -31295.17, -20307.86, -16160.85, -19786.79, -21007.44, -23942.54, -22471.24, 0.000, 0.000, 0.000, 10:39:37.394, 1583739577394
146, -26660.06, -31313.14, -20400.55, -16269.97, -20329.02, -21061.62, -24125.82, -22710.33, 0.002, -0.020, 0.972, 10:39:37.395, 1583739577395
147, -26725.85, -31308.56, -20429.18, -16287.29, -20444.40, -21062.85, -24141.83, -22773.12, 0.000, 0.000, 0.000, 10:39:37.395, 1583739577395
148, -26212.87, -31257.62, -20334.14, -16201.50, -19896.70, -21023.47, -23886.17, -22518.51, 0.000, 0.000, 0.000, 10:39:37.395, 1583739577395
149, -25850.84, -31237.17, -20251.44, -16129.51, -19451.40, -20992.96, -23739.16, -22308.27, 0.000, 0.000, 0.000, 10:39:37.395, 1583739577395
150, -26246.04, -31296.84, -20320.33, -16166.90, -19799.98, -21016.27, -23957.02, -22477.45, 0.000, 0.000, 0.000, 10:39:37.396, 1583739577396
151, -26665.27, -31323.51, -20413.09, -16281.61, -20344.91, -21074.59, -24141.52, -22720.39, 0.000, 0.000, 0.000, 10:39:37.396, 1583739577396
152, -26736.64, -31318.46, -20441.65, -16303.36, -20461.05, -21078.50, -24157.41, -22785.39, 0.000, 0.000, 0.000, 10:39:37.396, 1583739577396
153, -26216.83, -31254.64, -20341.43, -16211.63, -19906.91, -21033.42, -23896.96, -22526.49, 0.000, 0.000, 0.000, 10:39:37.396, 1583739577396
154, -25846.89, -31219.89, -20254.84, -16133.51, -19454.98, -20997.05, -23743.52, -22312.09, 0.000, 0.000, 0.000, 10:39:37.396, 1583739577396
155, -26235.27, -31287.30, -20317.94, -16164.80, -19794.10, -21014.04, -23954.97, -22477.40, 0.000, 0.000, 0.000, 10:39:37.396, 1583739577396
156, -26657.18, -31321.07, -20407.07, -16280.25, -20338.88, -21071.21, -24136.04, -22721.75, 0.010, -0.018, 0.974, 10:39:37.396, 1583739577396
157, -26736.64, -31321.79, -20437.76, -16303.65, -20458.04, -21075.19, -24152.04, -22789.14, 0.000, 0.000, 0.000, 10:39:37.396, 1583739577396
158, -26219.89, -31267.56, -20338.21, -16212.81, -19905.37, -21029.30, -23891.38, -22530.07, 0.000, 0.000, 0.000, 10:39:37.396, 1583739577396
159, -25842.04, -31233.70, -20253.85, -16138.32, -19452.19, -20994.77, -23737.84, -22314.71, 0.000, 0.000, 0.000, 10:39:37.397, 1583739577397
160, -26227.60, -31284.10, -20320.35, -16172.09, -19790.35, -21013.92, -23950.54, -22478.01, 0.000, 0.000, 0.000, 10:39:37.397, 1583739577397
161, -26650.39, -31314.75, -20405.89, -16279.83, -20331.10, -21066.23, -24129.06, -22716.30, 0.000, 0.000, 0.000, 10:39:37.397, 1583739577397
162, -26731.88, -31322.75, -20431.15, -16300.25, -20449.03, -21068.55, -24141.92, -22782.78, 0.000, 0.000, 0.000, 10:39:37.397, 1583739577397
163, -26224.96, -31261.62, -20336.98, -16216.66, -19901.41, -21028.72, -23885.05, -22529.53, 0.000, 0.000, 0.000, 10:39:37.397, 1583739577397
164, -25852.29, -31231.35, -20257.88, -16145.83, -19450.73, -20999.33, -23737.24, -22317.59, 0.000, 0.000, 0.000, 10:39:37.398, 1583739577398
165, -26235.94, -31292.58, -20321.69, -16172.83, -19788.60, -21016.32, -23951.12, -22479.89, 0.000, 0.000, 0.000, 10:39:37.398, 1583739577398
166, -26653.22, -31316.56, -20405.38, -16276.38, -20329.18, -21068.08, -24130.16, -22719.41, 0.006, -0.018, 0.972, 10:39:37.398, 1583739577398
167, -26733.04, -31312.98, -20433.76, -16297.55, -20452.47, -21072.24, -24147.13, -22787.36, 0.000, 0.000, 0.000, 10:39:37.398, 1583739577398
168, -26225.72, -31260.34, -20347.26, -16220.84, -19912.59, -21037.84, -23895.11, -22537.87, 0.000, 0.000, 0.000, 10:39:37.398, 1583739577398
169, -25848.70, -31233.28, -20259.26, -16146.21, -19454.09, -21003.15, -23739.50, -22319.69, 0.000, 0.000, 0.000, 10:39:37.398, 1583739577398
170, -26230.64, -31286.32, -20310.05, -16161.36, -19778.92, -21008.20, -23942.94, -22472.09, 0.000, 0.000, 0.000, 10:39:37.399, 1583739577399
171, -26648.69, -31303.57, -20401.58, -16271.00, -20325.16, -21063.03, -24124.82, -22712.10, 0.000, 0.000, 0.000, 10:39:37.399, 1583739577399
172, -26729.60, -31312.20, -20433.00, -16295.65, -20452.25, -21068.69, -24145.18, -22782.17, 0.000, 0.000, 0.000, 10:39:37.399, 1583739577399
173, -26225.01, -31257.64, -20340.67, -16212.61, -19909.95, -21029.93, -23891.82, -22531.81, 0.000, 0.000, 0.000, 10:39:37.399, 1583739577399
174, -25848.83, -31231.78, -20251.35, -16132.80, -19447.85, -20993.72, -23734.31, -22312.54, 0.000, 0.000, 0.000, 10:39:37.399, 1583739577399
175, -26225.79, -31287.32, -20307.27, -16159.24, -19774.19, -21006.30, -23940.33, -22468.69, 0.000, 0.000, 0.000, 10:39:37.399, 1583739577399
176, -26649.76, -31313.77, -20402.36, -16276.29, -20323.84, -21065.20, -24125.91, -22713.44, 0.000, -0.016, 0.972, 10:39:37.400, 1583739577400
177, -26732.89, -31306.63, -20431.28, -16298.49, -20452.79, -21068.02, -24144.22, -22782.82, 0.000, 0.000, 0.000, 10:39:37.400, 1583739577400
178, -26224.56, -31252.97, -20330.86, -16207.70, -19907.78, -21021.64, -23887.55, -22526.58, 0.000, 0.000, 0.000, 10:39:37.400, 1583739577400
179, -25845.57, -31230.88, -20247.13, -16133.67, -19449.06, -20990.01, -23733.73, -22308.25, 0.000, 0.000, 0.000, 10:39:37.400, 1583739577400
180, -26231.36, -31295.32, -20312.42, -16165.76, -19781.38, -21008.87, -23947.21, -22469.92, 0.000, 0.000, 0.000, 10:39:37.400, 1583739577400
181, -26653.78, -31314.03, -20400.93, -16275.69, -20326.63, -21062.81, -24128.15, -22711.09, 0.000, 0.000, 0.000, 10:39:37.400, 1583739577400
182, -26735.30, -31314.19, -20430.41, -16299.50, -20459.22, -21068.17, -24149.14, -22784.36, 0.000, 0.000, 0.000, 10:39:37.401, 1583739577401
183, -26227.49, -31257.17, -20337.03, -16216.68, -19921.24, -21030.09, -23896.96, -22536.86, 0.000, 0.000, 0.000, 10:39:37.401, 1583739577401
184, -25846.93, -31223.96, -20256.07, -16144.98, -19460.90, -21002.37, -23744.46, -22320.52, 0.000, 0.000, 0.000, 10:39:37.401, 1583739577401
185, -26225.21, -31291.59, -20322.12, -16177.21, -19786.75, -21022.22, -23957.31, -22479.64, 0.000, 0.000, 0.000, 10:39:37.401, 1583739577401
186, -26649.34, -31330.19, -20415.28, -16291.94, -20335.82, -21079.57, -24142.16, -22723.47, 0.000, 0.000, 0.000, 10:39:37.401, 1583739577401
187, -26731.77, -31318.08, -20441.94, -16309.04, -20468.14, -21076.96, -24158.35, -22792.07, 0.000, -0.024, 0.976, 10:39:37.401, 1583739577401
188, -26231.60, -31258.02, -20342.30, -16218.98, -19927.05, -21032.68, -23901.55, -22538.87, 0.000, 0.000, 0.000, 10:39:37.402, 1583739577402
189, -25850.19, -31231.89, -20258.37, -16146.72, -19462.04, -21002.75, -23744.57, -22319.91, 0.000, 0.000, 0.000, 10:39:37.402, 1583739577402
190, -26225.88, -31292.93, -20321.24, -16173.25, -19784.13, -21017.37, -23951.21, -22475.26, 0.000, 0.000, 0.000, 10:39:37.402, 1583739577402
191, -26648.53, -31310.70, -20412.48, -16283.00, -20329.31, -21070.52, -24136.06, -22717.62, 0.000, 0.000, 0.000, 10:39:37.402, 1583739577402
192, -26735.10, -31308.06, -20448.11, -16309.93, -20469.71, -21077.00, -24160.49, -22794.04, 0.000, 0.000, 0.000, 10:39:37.402, 1583739577402
193, -26234.15, -31255.38, -20346.08, -16220.57, -19927.79, -21032.16, -23900.99, -22541.78, 0.000, 0.000, 0.000, 10:39:37.402, 1583739577402
194, -25846.35, -31231.24, -20252.27, -16141.29, -19452.07, -20996.98, -23736.61, -22316.72, 0.000, 0.000, 0.000, 10:39:37.402, 1583739577402
195, -26217.46, -31289.18, -20314.20, -16166.68, -19771.10, -21011.29, -23944.71, -22470.01, 0.000, 0.000, 0.000, 10:39:37.403, 1583739577403
196, -26642.05, -31301.98, -20404.79, -16276.18, -20318.43, -21065.42, -24128.28, -22712.88, 0.000, 0.000, 0.000, 10:39:37.404, 1583739577404
197, -26735.86, -31309.72, -20436.91, -16303.38, -20459.87, -21071.95, -24151.57, -22790.71, 0.002, -0.024, 0.966, 10:39:37.405, 1583739577405
198, -26242.80, -31267.54, -20340.42, -16218.51, -19924.66, -21031.67, -23896.58, -22542.45, 0.000, 0.000, 0.000, 10:39:37.405, 1583739577405
199, -25846.19, -31235.20, -20248.65, -16139.77, -19445.90, -20992.89, -23727.74, -22312.56, 0.000, 0.000, 0.000, 10:39:37.405, 1583739577405
200, -26213.90, -31289.58, -20310.83, -16168.76, -19762.99, -21009.43, -23937.87, -22467.53, 0.000, 0.000, 0.000, 10:39:37.405, 1583739577405
201, -26638.38, -31313.16, -20402.36, -16276.83, -20312.86, -21063.14, -24125.82, -22710.24, 0.000, 0.000, 0.000, 10:39:37.405, 1583739577405
202, -26726.74, -31303.64, -20432.58, -16298.98, -20454.86, -21066.09, -24148.44, -22783.56, 0.000, 0.000, 0.000, 10:39:37.405, 1583739577405
203, -26231.94, -31247.83, -20342.52, -16217.08, -19926.27, -21027.02, -23900.54, -22538.58, 0.000, 0.000, 0.000, 10:39:37.406, 1583739577406
204, -25841.21, -31226.44, -20257.54, -16141.67, -19450.76, -20994.79, -23738.54, -22314.10, 0.000, 0.000, 0.000, 10:39:37.406, 1583739577406
205, -26211.91, -31285.24, -20312.13, -16164.47, -19761.09, -21008.52, -23943.25, -22464.17, 0.000, 0.000, 0.000, 10:39:37.406, 1583739577406
206, -26641.96, -31308.18, -20403.52, -16272.00, -20309.51, -21060.84, -24128.62, -22706.60, 0.000, 0.000, 0.000, 10:39:37.406, 1583739577406
207, -26736.02, -31309.23, -20436.51, -16294.51, -20456.92, -21063.75, -24153.88, -22781.21, 0.006, -0.022, 0.966, 10:39:37.406, 1583739577406
208, -26240.48, -31251.69, -20343.91, -16208.95, -19927.83, -21019.96, -23903.63, -22533.24, 0.000, 0.000, 0.000, 10:39:37.407, 1583739577407
209, -25842.17, -31212.44, -20258.79, -16134.67, -19450.40, -20986.79, -23739.65, -22307.89, 0.000, 0.000, 0.000, 10:39:37.407, 1583739577407
210, -26207.38, -31284.21, -20316.53, -16157.27, -19757.76, -21000.83, -23944.86, -22458.07, 0.000, 0.000, 0.000, 10:39:37.407, 1583739577407
211, -26636.89, -31310.01, -20410.81, -16272.40, -20312.55, -21060.28, -24134.00, -22704.99, 0.000, 0.000, 0.000, 10:39:37.407, 1583739577407
212, -26730.99, -31301.25, -20442.97, -16302.40, -20464.09, -21067.81, -24160.36, -22784.85, 0.000, 0.000, 0.000, 10:39:37.407, 1583739577407
213, -26239.05, -31250.69, -20346.99, -16217.13, -19936.44, -21026.58, -23909.41, -22540.77, 0.000, 0.000, 0.000, 10:39:37.408, 1583739577408
214, -25838.48, -31223.91, -20253.54, -16139.10, -19451.40, -20993.85, -23739.05, -22312.11, 0.000, 0.000, 0.000, 10:39:37.408, 1583739577408
215, -26200.63, -31280.13, -20310.72, -16164.36, -19758.16, -21008.58, -23941.20, -22460.35, 0.000, 0.000, 0.000, 10:39:37.408, 1583739577408
216, -26641.07, -31307.39, -20404.59, -16275.27, -20314.96, -21065.54, -24132.22, -22708.23, 0.000, 0.000, 0.000, 10:39:37.408, 1583739577408
217, -26743.79, -31303.73, -20436.69, -16304.66, -20467.94, -21072.93, -24160.94, -22792.07, 0.010, -0.020, 0.970, 10:39:37.408, 1583739577408
218, -26251.10, -31250.80, -20344.71, -16222.16, -19943.25, -21033.50, -23912.83, -22551.21, 0.000, 0.000, 0.000, 10:39:37.408, 1583739577408
219, -25845.70, -31226.41, -20257.07, -16144.49, -19457.42, -21000.47, -23744.03, -22323.20, 0.000, 0.000, 0.000, 10:39:37.408, 1583739577408
220, -26211.15, -31281.98, -20311.52, -16165.88, -19756.46, -21012.58, -23945.06, -22470.37, 0.000, 0.000, 0.000, 10:39:37.409, 1583739577409
221, -26643.41, -31297.18, -20400.19, -16276.41, -20304.68, -21066.32, -24131.66, -22714.87, 0.000, 0.000, 0.000, 10:39:37.409, 1583739577409
222, -26746.50, -31305.45, -20430.66, -16304.75, -20457.05, -21072.22, -24156.92, -22797.57, 0.000, 0.000, 0.000, 10:39:37.409, 1583739577409
223, -26254.74, -31266.13, -20332.87, -16216.50, -19927.50, -21025.95, -23902.87, -22550.41, 0.000, 0.000, 0.000, 10:39:37.409, 1583739577409
224, -25848.94, -31233.68, -20244.49, -16133.58, -19440.34, -20989.83, -23731.16, -22314.95, 0.000, 0.000, 0.000, 10:39:37.409, 1583739577409
225, -26207.06, -31286.09, -20299.12, -16152.82, -19741.02, -20999.49, -23930.34, -22456.78, 0.000, 0.000, 0.000, 10:39:37.866, 1583739577866
226, -26640.22, -31310.01, -20383.65, -16261.77, -20288.72, -21052.35, -24117.58, -22700.27, 0.000, 0.000, 0.000, 10:39:37.866, 1583739577866
227, -26742.77, -31306.97, -20417.71, -16291.87, -20447.08, -21060.10, -24146.75, -22782.69, 0.000, -0.020, 0.966, 10:39:37.866, 1583739577866
228, -26257.60, -31253.15, -20332.20, -16210.98, -19930.65, -21022.64, -23900.67, -22543.07, 0.000, 0.000, 0.000, 10:39:37.866, 1583739577866
229, -25850.15, -31224.36, -20245.96, -16134.52, -19445.84, -20990.72, -23730.80, -22311.18, 0.000, 0.000, 0.000, 10:39:37.867, 1583739577867
230, -26202.14, -31282.65, -20301.28, -16153.69, -19740.35, -20999.37, -23929.20, -22449.87, 0.000, 0.000, 0.000, 10:39:37.867, 1583739577867
231, -26635.10, -31301.07, -20390.96, -16263.73, -20295.25, -21052.15, -24119.30, -22691.91, 0.000, 0.000, 0.000, 10:39:37.867, 1583739577867
232, -26744.71, -31299.37, -20426.97, -16294.78, -20459.11, -21060.06, -24152.69, -22776.11, 0.000, 0.000, 0.000, 10:39:37.867, 1583739577867
233, -26260.82, -31249.82, -20336.71, -16210.33, -19941.02, -21018.39, -23906.44, -22536.06, 0.000, 0.000, 0.000, 10:39:37.867, 1583739577867
234, -25846.80, -31220.78, -20249.03, -16136.55, -19451.29, -20987.66, -23735.25, -22305.54, 0.000, 0.000, 0.000, 10:39:37.867, 1583739577867
235, -26204.78, -31270.29, -20308.32, -16158.72, -19746.92, -21001.79, -23938.45, -22451.46, 0.000, 0.000, 0.000, 10:39:37.868, 1583739577868
236, -26636.73, -31302.14, -20400.59, -16262.55, -20301.11, -21054.94, -24127.34, -22695.67, 0.000, 0.000, 0.000, 10:39:37.868, 1583739577868
237, -26734.09, -31301.63, -20431.93, -16290.73, -20464.25, -21058.61, -24155.02, -22777.01, 0.000, -0.016, 0.968, 10:39:37.868, 1583739577868
238, -26253.84, -31253.86, -20345.81, -16217.78, -19952.04, -21024.77, -23916.12, -22545.02, 0.000, 0.000, 0.000, 10:39:37.868, 1583739577868
239, -25841.12, -31229.65, -20254.30, -16140.28, -19458.40, -20991.77, -23740.21, -22311.11, 0.000, 0.000, 0.000, 10:39:37.872, 1583739577872
240, -26197.52, -31290.61, -20310.61, -16161.16, -19749.64, -21004.85, -23939.41, -22454.63, 0.000, 0.000, 0.000, 10:39:37.872, 1583739577872
241, -26634.27, -31317.41, -20404.01, -16272.87, -20304.23, -21061.53, -24131.30, -22702.20, 0.000, 0.000, 0.000, 10:39:37.872, 1583739577872
242, -26745.74, -31314.70, -20433.76, -16302.51, -20468.63, -21069.40, -24161.81, -22789.37, 0.000, 0.000, 0.000, 10:39:37.872, 1583739577872
243, -26268.10, -31263.07, -20342.52, -16219.81, -19954.99, -21032.34, -23919.43, -22556.40, 0.000, 0.000, 0.000, 10:39:37.873, 1583739577873
244, -25842.21, -31231.44, -20250.21, -16136.42, -19457.01, -20996.29, -23740.26, -22319.98, 0.000, 0.000, 0.000, 10:39:37.873, 1583739577873
245, -26196.47, -31292.13, -20311.34, -16161.47, -19748.26, -21012.45, -23941.20, -22464.33, 0.000, 0.000, 0.000, 10:39:37.873, 1583739577873
246, -26634.49, -31311.71, -20400.77, -16274.35, -20301.62, -21069.36, -24130.63, -22710.87, 0.000, 0.000, 0.000, 10:39:37.873, 1583739577873
247, -26743.73, -31302.86, -20431.75, -16304.17, -20464.94, -21076.58, -24159.87, -22797.24, -0.002, -0.020, 0.972, 10:39:37.873, 1583739577873
248, -26266.14, -31246.38, -20342.03, -16228.08, -19951.19, -21037.66, -23914.15, -22561.49, 0.000, 0.000, 0.000, 10:39:37.873, 1583739577873
249, -25846.26, -31225.10, -20253.32, -16155.64, -19454.94, -21007.82, -23736.97, -22327.02, 0.000, 0.000, 0.000, 10:39:37.873, 1583739577873
250, -26192.55, -31284.35, -20305.67, -16164.31, -19735.12, -21012.11, -23930.20, -22459.17, 0.000, 0.000, 0.000, 10:39:37.873, 1583739577873
251, -26630.25, -31317.27, -20395.47, -16265.97, -20288.63, -21060.51, -24118.85, -22699.67, 0.000, 0.000, 0.000, 10:39:37.874, 1583739577874
252, -26744.78, -31311.91, -20431.44, -16297.01, -20461.50, -21068.33, -24155.26, -22786.93, 0.000, 0.000, 0.000, 10:39:37.874, 1583739577874
253, -26265.85, -31251.36, -20337.34, -16211.45, -19948.19, -21024.12, -23910.91, -22547.23, 0.000, 0.000, 0.000, 10:39:37.874, 1583739577874
254, -25842.59, -31218.90, -20248.47, -16136.08, -19449.68, -20993.50, -23733.75, -22312.05, 0.000, 0.000, 0.000, 10:39:37.874, 1583739577874
255, -26187.30, -31285.27, -20301.82, -16155.71, -19733.26, -21006.21, -23931.16, -22451.46, 0.000, 0.000, 0.000, 10:39:37.874, 1583739577874
0, -26632.35, -31314.55, -20399.16, -16269.66, -20294.73, -21064.42, -24128.73, -22701.46, 0.000, 0.000, 0.000, 10:39:37.874, 1583739577874
1, -26750.10, -31314.14, -20438.68, -16305.19, -20472.68, -21075.39, -24165.65, -22791.94, 0.000, -0.022, 0.968, 10:39:37.874, 1583739577874
2, -26272.62, -31261.86, -20350.50, -16225.04, -19966.05, -21034.67, -23924.28, -22558.14, 0.000, 0.000, 0.000, 10:39:37.874, 1583739577874
3, -25848.05, -31230.33, -20257.97, -16140.75, -19461.93, -20997.03, -23747.28, -22318.60, 0.000, 0.000, 0.000, 10:39:37.875, 1583739577875
4, -26192.44, -31278.74, -20308.82, -16153.99, -19737.95, -21001.77, -23940.08, -22450.72, 0.000, 0.000, 0.000, 10:39:37.875, 1583739577875
5, -26637.65, -31315.78, -20404.95, -16269.79, -20300.99, -21062.21, -24136.06, -22702.38, 0.000, 0.000, 0.000, 10:39:37.875, 1583739577875
6, -26753.56, -31315.71, -20443.89, -16303.96, -20478.71, -21073.43, -24172.34, -22794.06, 0.000, 0.000, 0.000, 10:39:37.875, 1583739577875
7, -26281.07, -31258.06, -20358.35, -16220.50, -19973.67, -21032.72, -23933.82, -22561.27, 0.000, 0.000, 0.000, 10:39:37.875, 1583739577875
8, -25849.39, -31224.20, -20265.72, -16141.85, -19467.07, -20997.16, -23750.36, -22320.74, 0.000, 0.000, 0.000, 10:39:37.875, 1583739577875
9, -26189.54, -31287.35, -20314.74, -16158.90, -19740.21, -21005.86, -23940.97, -22454.45, 0.000, 0.000, 0.000, 10:39:37.875, 1583739577875
10, -26634.58, -31324.65, -20408.19, -16271.29, -20299.41, -21061.85, -24135.95, -22702.76, 0.000, 0.000, 0.000, 10:39:37.875, 1583739577875
11, -26758.81, -31323.76, -20446.84, -16307.85, -20479.65, -21072.24, -24172.67, -22796.52, 0.002, -0.022, 0.966, 10:39:37.876, 1583739577876
12, -26292.11, -31273.82, -20355.69, -16223.86, -19973.21, -21029.68, -23930.96, -22563.79, 0.000, 0.000, 0.000, 10:39:37.876, 1583739577876
13, -25856.41, -31227.49, -20256.83, -16140.93, -19456.99, -20992.33, -23743.25, -22319.87, 0.000, 0.000, 0.000, 10:39:37.876, 1583739577876
14, -26199.53, -31293.27, -20314.23, -16162.39, -19735.00, -21007.20, -23941.02, -22458.56, 0.000, 0.000, 0.000, 10:39:37.876, 1583739577876
15, -26639.12, -31334.71, -20405.51, -16268.00, -20290.44, -21060.42, -24134.07, -22704.23, 0.000, 0.000, 0.000, 10:39:37.876, 1583739577876
16, -26760.00, -31332.09, -20442.95, -16303.83, -20469.39, -21071.70, -24170.93, -22798.94, 0.000, 0.000, 0.000, 10:39:37.876, 1583739577876
17, -26296.83, -31278.47, -20355.26, -16227.75, -19971.42, -21034.27, -23931.07, -22572.49, 0.000, 0.000, 0.000, 10:39:37.876, 1583739577876
18, -25864.77, -31248.54, -20260.34, -16146.32, -19460.61, -20999.51, -23743.05, -22330.26, 0.000, 0.000, 0.000, 10:39:37.876, 1583739577876
19, -26205.68, -31311.87, -20311.70, -16162.12, -19731.47, -21011.31, -23935.07, -22463.75, 0.000, 0.000, 0.000, 10:39:37.877, 1583739577877
20, -26657.49, -31348.90, -20406.58, -16276.54, -20290.76, -21071.93, -24132.87, -22716.48, 0.000, 0.000, 0.000, 10:39:37.877, 1583739577877
21, -26792.95, -31360.32, -20447.62, -16315.25, -20479.81, -21085.38, -24176.07, -22813.96, 0.000, 0.000, 0.000, 10:39:37.877, 1583739577877
22, -26334.47, -31314.48, -20360.56, -16234.54, -19983.00, -21046.67, -23938.87, -22583.96, 0.002, -0.024, 0.966, 10:39:37.877, 1583739577877
23, -25903.48, -31291.53, -20264.49, -16156.00, -19467.61, -21014.75, -23753.58, -22340.93, 0.000, 0.000, 0.000, 10:39:37.877, 1583739577877
24, -26250.83, -31363.83, -20314.16, -16172.51, -19735.29, -21025.48, -23945.83, -22472.87, 0.000, 0.000, 0.000, 10:39:37.877, 1583739577877
25, -26711.94, -31395.01, -20408.57, -16285.08, -20296.63, -21082.08, -24142.48, -22722.43, 0.000, 0.000, 0.000, 10:39:37.877, 1583739577877
26, -26852.09, -31411.98, -20447.08, -16318.16, -20484.17, -21089.34, -24181.10, -22815.05, 0.000, 0.000, 0.000, 10:39:37.877, 1583739577877
27, -26414.93, -31409.03, -20365.77, -16234.00, -19992.70, -21047.56, -23947.99, -22586.37, 0.000, 0.000, 0.000, 10:39:37.878, 1583739577878
28, -25989.09, -31384.75, -20275.91, -16152.93, -19478.96, -21012.45, -23763.23, -22339.21, 0.000, 0.000, 0.000, 10:39:37.878, 1583739577878
29, -26341.24, -31458.87, -20325.04, -16166.37, -19740.68, -21020.52, -23954.63, -22467.82, 0.000, 0.000, 0.000, 10:39:37.878, 1583739577878
30, -26800.63, -31507.04, -20415.90, -16273.68, -20297.95, -21073.94, -24151.19, -22715.81, 0.000, 0.000, 0.000, 10:39:37.878, 1583739577878
31, -26954.75, -31530.58, -20461.77, -16315.52, -20495.19, -21088.74, -24198.49, -22817.20, 0.000, 0.000, 0.000, 10:39:37.878, 1583739577878
32, -26509.30, -31498.32, -20379.11, -16238.36, -20004.92, -21051.65, -23966.08, -22593.16, 0.002, -0.020, 0.966, 10:39:37.878, 1583739577878
33, -26076.39, -31477.09, -20285.97, -16158.46, -19492.46, -21017.61, -23777.81, -22347.74, 0.000, 0.000, 0.000, 10:39:37.878, 1583739577878
34, -26413.93, -31550.13, -20339.75, -16173.61, -19756.95, -21027.60, -23968.18, -22476.73, 0.000, 0.000, 0.000, 10:39:37.878, 1583739577878
35, -26872.03, -31595.22, -20436.94, -16287.58, -20322.65, -21087.44, -24171.04, -22730.87, 0.000, 0.000, 0.000, 10:39:37.879, 1583739577879
36, -27009.42, -31593.61, -20476.01, -16323.55, -20514.56, -21098.08, -24215.01, -22828.04, 0.000, 0.000, 0.000, 10:39:37.879, 1583739577879
37, -26552.02, -31541.08, -20388.79, -16242.86, -20020.97, -21058.52, -23980.43, -22602.11, 0.000, 0.000, 0.000, 10:39:37.879, 1583739577879
38, -26103.91, -31496.22, -20290.85, -16162.72, -19497.13, -21024.54, -23786.05, -22355.65, 0.000, 0.000, 0.000, 10:39:37.879, 1583739577879
39, -26433.93, -31575.37, -20341.45, -16179.02, -19756.24, -21036.08, -23974.75, -22485.23, 0.000, 0.000, 0.000, 10:39:37.879, 1583739577879
40, -26884.90, -31618.38, -20435.53, -16293.44, -20317.40, -21093.70, -24172.27, -22736.84, 0.000, 0.000, 0.000, 10:39:37.879, 1583739577879
41, -27018.05, -31619.49, -20476.25, -16338.48, -20515.30, -21109.59, -24216.10, -22840.24, 0.000, 0.000, 0.000, 10:39:37.879, 1583739577879
42, -26560.02, -31557.02, -20389.37, -16258.03, -20021.89, -21070.81, -23982.66, -22615.99, 0.004, -0.020, 0.972, 10:39:37.879, 1583739577879
43, -26105.38, -31514.04, -20289.59, -16170.82, -19494.99, -21031.11, -23785.85, -22364.75, 0.000, 0.000, 0.000, 10:39:37.880, 1583739577880
44, -26421.91, -31564.48, -20335.21, -16182.68, -19744.28, -21036.81, -23966.81, -22487.49, 0.000, 0.000, 0.000, 10:39:37.880, 1583739577880
45, -26866.57, -31592.09, -20427.41, -16290.91, -20302.94, -21090.35, -24160.96, -22735.05, 0.000, 0.000, 0.000, 10:39:37.880, 1583739577880
46, -26987.76, -31579.30, -20461.72, -16322.23, -20496.53, -21095.53, -24199.47, -22830.18, 0.000, 0.000, 0.000, 10:39:37.880, 1583739577880
47, -26527.56, -31520.81, -20374.44, -16243.12, -20007.09, -21056.88, -23966.08, -22605.97, 0.000, 0.000, 0.000, 10:39:37.880, 1583739577880
48, -26077.20, -31488.73, -20278.15, -16164.09, -19484.06, -21023.80, -23772.67, -22356.48, 0.000, 0.000, 0.000, 10:39:37.880, 1583739577880
49, -26388.83, -31532.63, -20326.16, -16176.31, -19730.69, -21029.21, -23956.73, -22474.77, 0.000, 0.000, 0.000, 10:39:37.880, 1583739577880
50, -26830.07, -31550.65, -20422.39, -16286.58, -20294.56, -21085.99, -24156.29, -22724.39, 0.000, 0.000, 0.000, 10:39:37.880, 1583739577880
51, -26964.29, -31560.26, -20462.13, -16324.42, -20496.82, -21097.30, -24200.03, -22825.06, 0.000, 0.000, 0.000, 10:39:37.881, 1583739577881
52, -26507.96, -31502.77, -20379.22, -16247.04, -20015.56, -21058.00, -23969.29, -22604.30, 0.004, -0.020, 0.966, 10:39:37.881, 1583739577881
53, -26050.46, -31450.40, -20283.07, -16162.77, -19490.09, -21022.11, -23774.92, -22354.34, 0.000, 0.000, 0.000, 10:39:37.881, 1583739577881
54, -26360.06, -31499.73, -20329.71, -16172.65, -19735.99, -21026.71, -23956.80, -22473.94, 0.000, 0.000, 0.000, 10:39:37.881, 1583739577881
55, -26805.33, -31526.44, -20417.00, -16277.52, -20291.74, -21076.93, -24150.68, -22718.94, 0.000, 0.000, 0.000, 10:39:37.881, 1583739577881
56, -26942.90, -31521.66, -20455.67, -16316.84, -20492.41, -21089.63, -24196.70, -22821.67, 0.000, 0.000, 0.000, 10:39:37.881, 1583739577881
57, -26487.04, -31471.34, -20376.23, -16240.58, -20009.66, -21052.08, -23966.93, -22601.57, 0.000, 0.000, 0.000, 10:39:37.881, 1583739577881
58, -26026.19, -31433.91, -20277.41, -16159.71, -19479.43, -21017.66, -23769.09, -22351.30, 0.000, 0.000, 0.000, 10:39:37.881, 1583739577881
59, -26340.99, -31488.42, -20325.71, -16175.53, -19728.16, -21028.79, -23954.74, -22475.26, 0.000, 0.000, 0.000, 10:39:37.882, 1583739577882
60, -26788.99, -31509.74, -20423.35, -16288.05, -20295.47, -21086.28, -24157.68, -22728.15, 0.000, 0.000, 0.000, 10:39:37.882, 1583739577882
61, -26918.74, -31500.13, -20460.07, -16321.76, -20499.81, -21091.87, -24202.54, -22828.19, 0.000, 0.000, 0.000, 10:39:37.882, 1583739577882
62, -26463.06, -31440.79, -20371.80, -16238.07, -20013.57, -21046.87, -23969.43, -22604.07, 0.006, -0.018, 0.966, 10:39:37.882, 1583739577882
63, -26002.45, -31407.08, -20278.89, -16162.34, -19486.09, -21015.87, -23773.02, -22352.77, 0.000, 0.000, 0.000, 10:39:37.882, 1583739577882
64, -26305.50, -31451.14, -20326.41, -16175.15, -19728.41, -21023.42, -23951.84, -22470.41, 0.000, 0.000, 0.000, 10:39:37.882, 1583739577882
65, -26747.04, -31458.40, -20418.52, -16280.61, -20288.61, -21076.33, -24149.20, -22717.84, 0.000, 0.000, 0.000, 10:39:37.882, 1583739577882
66, -26888.79, -31457.98, -20461.57, -16323.28, -20497.87, -21091.31, -24199.36, -22824.68, 0.000, 0.000, 0.000, 10:39:37.882, 1583739577882
67, -26438.34, -31404.36, -20373.59, -16245.22, -20016.41, -21049.42, -23966.05, -22605.17, 0.000, 0.000, 0.000, 10:39:37.883, 1583739577883
68, -25974.47, -31357.31, -20274.17, -16167.33, -19483.50, -21015.71, -23764.75, -22352.46, 0.000, 0.000, 0.000, 10:39:37.883, 1583739577883
69, -26277.96, -31408.45, -20320.28, -16173.36, -19718.62, -21019.78, -23943.48, -22466.07, 0.000, 0.000, 0.000, 10:39:37.883, 1583739577883
70, -26722.54, -31429.03, -20415.81, -16281.61, -20281.77, -21074.41, -24144.67, -22716.23, 0.000, 0.000, 0.000, 10:39:37.883, 1583739577883
71, -26856.54, -31414.39, -20451.64, -16319.50, -20485.80, -21084.56, -24189.48, -22818.29, 0.000, 0.000, 0.000, 10:39:37.883, 1583739577883
72, -26407.69, -31361.33, -20365.50, -16236.02, -20007.74, -21042.33, -23959.75, -22599.11, 0.006, -0.022, 0.970, 10:39:37.883, 1583739577883
73, -25935.42, -31319.89, -20268.43, -16151.93, -19471.86, -21007.64, -23759.34, -22343.74, 0.000, 0.000, 0.000, 10:39:37.883, 1583739577883
74, -26233.32, -31362.34, -20317.11, -16164.69, -19708.11, -21016.47, -23942.00, -22460.13, 0.000, 0.000, 0.000, 10:39:37.883, 1583739577883
75, -26682.33, -31389.49, -20416.31, -16274.51, -20275.80, -21072.82, -24147.15, -22711.54, 0.000, 0.000, 0.000, 10:39:37.884, 1583739577884
76, -26824.98, -31383.48, -20459.60, -16317.87, -20491.72, -21087.91, -24196.52, -22819.30, 0.000, 0.000, 0.000, 10:39:37.884, 1583739577884
77, -26378.61, -31322.66, -20376.99, -16243.44, -20019.88, -21050.18, -23971.46, -22603.92, 0.000, 0.000, 0.000, 10:39:37.884, 1583739577884
78, -25906.47, -31279.75, -20278.42, -16163.66, -19485.04, -21015.29, -23770.81, -22347.92, 0.000, 0.000, 0.000, 10:39:37.884, 1583739577884
79, -26206.08, -31330.93, -20326.16, -16174.15, -19717.63, -21021.50, -23950.05, -22462.43, 0.000, 0.000, 0.000, 10:39:37.884, 1583739577884
80, -26662.95, -31360.44, -20423.62, -16286.42, -20285.57, -21078.37, -24155.08, -22714.45, 0.000, 0.000, 0.000, 10:39:37.884, 1583739577884
81, -26803.52, -31354.96, -20467.51, -16328.78, -20503.43, -21090.64, -24203.12, -22820.75, 0.000, 0.000, 0.000, 10:39:37.884, 1583739577884
82, -26359.12, -31295.50, -20380.83, -16243.77, -20030.07, -21045.91, -23973.29, -22602.29, 0.000, -0.018, 0.980, 10:39:37.884, 1583739577884
83, -25889.35, -31248.65, -20275.36, -16155.15, -19485.18, -21005.34, -23765.98, -22342.74, 0.000, 0.000, 0.000, 10:39:37.884, 1583739577884
84, -26187.01, -31314.79, -20319.52, -16165.72, -19711.13, -21013.14, -23942.54, -22457.00, 0.000, 0.000, 0.000, 10:39:37.885, 1583739577885
85, -26640.95, -31343.04, -20413.62, -16276.41, -20276.74, -21070.99, -24149.32, -22712.03, 0.000, 0.000, 0.000, 10:39:37.885, 1583739577885
86, -26787.13, -31336.72, -20455.64, -16316.19, -20497.73, -21084.49, -24202.47, -22821.87, 0.000, 0.000, 0.000, 10:39:37.885, 1583739577885
87, -26342.51, -31279.75, -20373.10, -16236.78, -20026.96, -21043.43, -23973.68, -22605.19, 0.000, 0.000, 0.000, 10:39:37.885, 1583739577885
88, -25871.29, -31235.22, -20268.05, -16153.94, -19476.84, -21005.81, -23761.96, -22345.46, 0.000, 0.000, 0.000, 10:39:37.885, 1583739577885
89, -26167.57, -31293.58, -20308.30, -16161.65, -19696.49, -21007.82, -23933.11, -22454.81, 0.000, 0.000, 0.000, 10:39:37.885, 1583739577885
90, -26627.54, -31327.22, -20408.06, -16276.67, -20265.19, -21068.71, -24140.64, -22712.57, 0.000, 0.000, 0.000, 10:39:38.348, 1583739578348
91, -26775.87, -31320.47, -20451.53, -16320.55, -20487.09, -21084.31, -24192.86, -22822.07, 0.000, 0.000, 0.000, 10:39:38.348, 1583739578348
92, -26341.28, -31270.69, -20371.54, -16246.72, -20022.65, -21047.88, -23969.27, -22611.27, 0.000, -0.016, 0.974, 10:39:38.348, 1583739578348
93, -25865.53, -31234.08, -20270.15, -16165.76, -19476.73, -21013.01, -23763.66, -22352.44, 0.000, 0.000, 0.000, 10:39:38.349, 1583739578349
94, -26148.52, -31277.49, -20310.78, -16171.08, -19695.48, -21017.12, -23935.72, -22459.72, 0.000, 0.000, 0.000, 10:39:38.349, 1583739578349
95, -26604.43, -31307.91, -20411.01, -16284.92, -20264.13, -21078.07, -24144.40, -22715.29, 0.000, 0.000, 0.000, 10:39:38.349, 1583739578349
96, -26757.99, -31303.86, -20462.28, -16332.51, -20495.86, -21096.85, -24200.77, -22828.78, 0.000, 0.000, 0.000, 10:39:38.349, 1583739578349
97, -26325.82, -31253.37, -20383.87, -16258.52, -20036.60, -21060.93, -23977.92, -22619.94, 0.000, 0.000, 0.000, 10:39:38.349, 1583739578349
98, -25851.09, -31217.63, -20278.73, -16172.13, -19484.95, -21022.40, -23768.71, -22357.58, 0.000, 0.000, 0.000, 10:39:38.350, 1583739578350
99, -26141.08, -31269.33, -20319.34, -16171.75, -19700.76, -21023.16, -23941.58, -22460.42, 0.000, 0.000, 0.000, 10:39:38.356, 1583739578356
100, -26596.59, -31296.96, -20410.25, -16276.52, -20267.44, -21076.00, -24144.38, -22708.43, 0.000, 0.000, 0.000, 10:39:38.358, 1583739578358
101, -26761.50, -31296.42, -20462.73, -16326.83, -20502.05, -21095.29, -24205.57, -22826.12, 0.000, 0.000, 0.000, 10:39:38.358, 1583739578358
102, -26336.26, -31246.49, -20395.27, -16259.62, -20052.40, -21063.90, -23993.08, -22622.74, -0.004, -0.016, 0.970, 10:39:38.358, 1583739578358
103, -25851.56, -31213.96, -20292.23, -16175.67, -19505.23, -21026.40, -23783.26, -22358.94, 0.000, 0.000, 0.000, 10:39:38.359, 1583739578359
104, -26140.19, -31261.24, -20334.90, -16182.71, -19720.36, -21031.00, -23956.49, -22465.34, 0.000, 0.000, 0.000, 10:39:38.359, 1583739578359
105, -26603.29, -31302.57, -20431.24, -16290.73, -20287.36, -21086.34, -24164.83, -22718.07, 0.000, 0.000, 0.000, 10:39:38.359, 1583739578359
106, -26757.32, -31301.09, -20469.12, -16333.51, -20512.89, -21098.26, -24213.22, -22828.64, 0.000, 0.000, 0.000, 10:39:38.360, 1583739578360
107, -26327.36, -31243.02, -20383.09, -16251.42, -20049.65, -21054.61, -23986.82, -22616.48, 0.000, 0.000, 0.000, 10:39:38.360, 1583739578360
108, -25848.99, -31203.50, -20278.20, -16164.49, -19493.56, -21016.36, -23774.07, -22353.40, 0.000, 0.000, 0.000, 10:39:38.360, 1583739578360
109, -26134.15, -31272.37, -20318.12, -16172.94, -19701.65, -21021.44, -23942.90, -22460.28, 0.000, 0.000, 0.000, 10:39:38.361, 1583739578361
110, -26596.59, -31307.91, -20419.81, -16288.79, -20271.96, -21082.72, -24150.95, -22718.13, 0.000, 0.000, 0.000, 10:39:38.361, 1583739578361
111, -26753.65, -31308.54, -20465.95, -16336.04, -20503.52, -21099.40, -24204.97, -22831.79, 0.000, 0.000, 0.000, 10:39:38.361, 1583739578361
112, -26320.81, -31242.31, -20382.60, -16252.38, -20043.97, -21053.71, -23979.44, -22616.14, 0.000, 0.000, 0.000, 10:39:38.362, 1583739578362
113, -25832.29, -31194.14, -20277.70, -16167.49, -19486.79, -21015.76, -23763.14, -22350.76, 0.000, -0.022, 0.972, 10:39:38.362, 1583739578362
114, -26118.82, -31256.90, -20314.81, -16172.87, -19691.57, -21017.43, -23929.71, -22451.86, 0.000, 0.000, 0.000, 10:39:38.362, 1583739578362
115, -26583.00, -31290.29, -20402.36, -16273.12, -20252.00, -21064.82, -24130.85, -22698.58, 0.000, 0.000, 0.000, 10:39:38.365, 1583739578365
116, -26746.54, -31292.58, -20448.92, -16320.71, -20486.11, -21079.75, -24188.14, -22815.12, 0.000, 0.000, 0.000, 10:39:38.366, 1583739578366
117, -26325.26, -31236.85, -20371.51, -16245.60, -20035.57, -21040.88, -23970.05, -22609.15, 0.000, 0.000, 0.000, 10:39:38.366, 1583739578366
118, -25843.89, -31200.60, -20272.16, -16162.46, -19481.33, -21007.87, -23760.62, -22347.59, 0.000, 0.000, 0.000, 10:39:38.372, 1583739578372
119, -26122.51, -31254.31, -20312.24, -16166.01, -19686.39, -21014.19, -23930.20, -22451.39, 0.000, 0.000, 0.000, 10:39:38.372, 1583739578372
120, -26586.64, -31297.94, -20414.59, -16279.33, -20260.80, -21074.92, -24142.48, -22708.52, 0.000, 0.000, 0.000, 10:39:38.373, 1583739578373
121, -26747.44, -31294.27, -20458.24, -16321.74, -20494.89, -21087.28, -24197.19, -22820.35, 0.000, 0.000, 0.000, 10:39:38.373, 1583739578373
122, -26329.21, -31244.70, -20382.29, -16247.88, -20047.88, -21050.83, -23980.83, -22616.59, 0.000, 0.000, 0.000, 10:39:38.373, 1583739578373
123, -25837.21, -31201.38, -20275.20, -16159.64, -19485.78, -21008.67, -23763.28, -22346.18, 0.000, -0.018, 0.968, 10:39:38.373, 1583739578373
124, -26113.12, -31248.68, -20309.85, -16160.18, -19681.49, -21006.82, -23927.79, -22443.63, 0.000, 0.000, 0.000, 10:39:38.373, 1583739578373
125, -26579.35, -31284.62, -20408.13, -16271.42, -20253.18, -21066.12, -24139.59, -22701.28, 0.000, 0.000, 0.000, 10:39:38.374, 1583739578374
126, -26749.03, -31296.38, -20455.56, -16323.14, -20497.96, -21089.23, -24200.32, -22824.13, 0.000, 0.000, 0.000, 10:39:38.374, 1583739578374
127, -26339.41, -31253.59, -20382.82, -16254.32, -20052.89, -21057.31, -23988.56, -22627.38, 0.000, 0.000, 0.000, 10:39:38.375, 1583739578375
128, -25845.95, -31201.71, -20278.08, -16168.45, -19492.31, -21019.94, -23773.47, -22360.97, 0.000, 0.000, 0.000, 10:39:38.375, 1583739578375
129, -26122.97, -31255.87, -20322.47, -16176.05, -19693.27, -21028.50, -23946.27, -22464.91, 0.000, 0.000, 0.000, 10:39:38.375, 1583739578375
130, -26588.58, -31295.12, -20421.65, -16283.65, -20267.64, -21083.71, -24156.47, -22717.82, 0.000, 0.000, 0.000, 10:39:38.375, 1583739578375
131, -26756.58, -31297.22, -20468.97, -16329.47, -20510.76, -21098.17, -24215.81, -22835.86, 0.000, 0.000, 0.000, 10:39:38.376, 1583739578376
132, -26340.86, -31246.87, -20389.84, -16252.71, -20060.76, -21057.55, -23997.46, -22631.92, 0.000, 0.000, 0.000, 10:39:38.376, 1583739578376
133, -25850.71, -31202.52, -20285.28, -16167.28, -19497.05, -21019.60, -23777.74, -22363.41, -0.002, -0.018, 0.966, 10:39:38.376, 1583739578376
134, -26122.01, -31247.31, -20317.13, -16169.79, -19685.49, -21021.55, -23939.21, -22459.05, 0.000, 0.000, 0.000, 10:39:38.376, 1583739578376
135, -26587.33, -31294.03, -20416.51, -16284.52, -20260.89, -21080.64, -24151.66, -22716.17, 0.000, 0.000, 0.000, 10:39:38.377, 1583739578377
136, -26756.74, -31302.90, -20467.11, -16336.64, -20506.36, -21100.13, -24214.29, -22838.39, 0.000, 0.000, 0.000, 10:39:38.377, 1583739578377
137, -26344.57, -31247.22, -20389.75, -16260.49, -20063.28, -21061.51, -23999.60, -22636.77, 0.000, 0.000, 0.000, 10:39:38.377, 1583739578377
138, -25851.83, -31204.62, -20288.48, -16179.11, -19502.52, -21027.27, -23782.23, -22370.97, 0.000, 0.000, 0.000, 10:39:38.378, 1583739578378
139, -26119.26, -31250.87, -20323.70, -16178.28, -19689.76, -21027.67, -23944.04, -22464.20, 0.000, 0.000, 0.000, 10:39:38.378, 1583739578378
140, -26585.52, -31286.09, -20415.50, -16279.78, -20255.64, -21077.29, -24151.46, -22713.42, 0.000, 0.000, 0.000, 10:39:38.378, 1583739578378
141, -26760.87, -31288.02, -20465.44, -16331.93, -20505.47, -21097.32, -24214.81, -22836.91, 0.000, 0.000, 0.000, 10:39:38.378, 1583739578378
142, -26348.24, -31247.20, -20389.51, -16259.08, -20064.00, -21060.73, -24001.68, -22639.61, 0.000, 0.000, 0.000, 10:39:38.378, 1583739578378
143, -25849.79, -31203.17, -20283.63, -16176.99, -19498.52, -21025.66, -23782.12, -22371.84, 0.002, -0.018, 0.966, 10:39:38.379, 1583739578379
144, -26113.90, -31248.77, -20317.53, -16177.66, -19682.10, -21027.43, -23941.15, -22462.92, 0.000, 0.000, 0.000, 10:39:38.379, 1583739578379
145, -26582.33, -31282.63, -20410.70, -16277.84, -20248.31, -21077.00, -24149.32, -22712.72, 0.000, 0.000, 0.000, 10:39:38.379, 1583739578379
146, -26758.79, -31289.92, -20460.90, -16328.33, -20500.55, -21095.75, -24211.14, -22836.91, 0.000, 0.000, 0.000, 10:39:38.379, 1583739578379
147, -26347.95, -31245.97, -20386.67, -16256.56, -20064.00, -21056.42, -23996.07, -22638.09, 0.000, 0.000, 0.000, 10:39:38.379, 1583739578379
148, -25853.90, -31204.44, -20285.68, -16174.82, -19497.36, -21020.74, -23777.56, -22368.80, 0.000, 0.000, 0.000, 10:39:38.380, 1583739578380
149, -26119.76, -31256.39, -20326.32, -16179.96, -19683.21, -21026.73, -23943.39, -22464.26, 0.000, 0.000, 0.000, 10:39:38.380, 1583739578380
150, -26588.23, -31288.60, -20423.55, -16287.96, -20254.59, -21083.21, -24154.88, -22719.52, 0.000, 0.000, 0.000, 10:39:38.380, 1583739578380
151, -26758.30, -31298.10, -20461.72, -16328.24, -20500.82, -21091.89, -24210.76, -22833.78, 0.000, 0.000, 0.000, 10:39:38.380, 1583739578380
152, -26353.67, -31254.11, -20386.56, -16252.36, -20065.58, -21052.24, -23999.34, -22636.50, 0.000, 0.000, 0.000, 10:39:38.380, 1583739578380
153, -25852.61, -31211.21, -20288.21, -16174.97, -19500.80, -21022.87, -23781.38, -22371.37, 0.006, -0.022, 0.968, 10:39:38.381, 1583739578381
154, -26104.18, -31255.65, -20327.46, -16180.63, -19682.37, -21026.44, -23941.78, -22463.10, 0.000, 0.000, 0.000, 10:39:38.381, 1583739578381
155, -26573.92, -31289.13, -20426.32, -16289.10, -20253.14, -21082.61, -24154.63, -22716.88, 0.000, 0.000, 0.000, 10:39:38.381, 1583739578381
156, -26752.51, -31290.63, -20476.81, -16342.79, -20511.35, -21104.43, -24219.59, -22842.61, 0.000, 0.000, 0.000, 10:39:38.381, 1583739578381
157, -26352.53, -31240.59, -20402.72, -16268.83, -20078.21, -21066.45, -24009.44, -22646.63, 0.000, 0.000, 0.000, 10:39:38.381, 1583739578381
158, -25848.09, -31187.72, -20286.35, -16174.93, -19498.63, -21020.68, -23778.99, -22367.72, 0.000, 0.000, 0.000, 10:39:38.382, 1583739578382
159, -26103.95, -31248.27, -20311.74, -16169.81, -19668.19, -21017.66, -23930.22, -22452.53, 0.000, 0.000, 0.000, 10:39:38.382, 1583739578382
160, -26575.26, -31291.88, -20406.22, -16276.45, -20238.05, -21072.31, -24141.34, -22706.62, 0.000, 0.000, 0.000, 10:39:38.382, 1583739578382
161, -26754.99, -31292.11, -20454.79, -16329.76, -20494.00, -21092.22, -24207.38, -22832.44, 0.000, 0.000, 0.000, 10:39:38.382, 1583739578382
162, -26356.91, -31248.05, -20380.79, -16257.43, -20061.85, -21054.07, -23999.22, -22637.27, 0.000, 0.000, 0.000, 10:39:38.382, 1583739578382
163, -25852.43, -31200.13, -20277.61, -16174.64, -19490.52, -21016.92, -23773.54, -22363.84, 0.008, -0.022, 0.970, 10:39:38.383, 1583739578383
164, -26105.99, -31247.20, -20311.01, -16169.07, -19663.88, -21014.71, -23928.37, -22449.62, 0.000, 0.000, 0.000, 10:39:38.383, 1583739578383
165, -26575.04, -31283.10, -20404.06, -16271.87, -20229.15, -21066.47, -24139.68, -22702.11, 0.000, 0.000, 0.000, 10:39:38.383, 1583739578383
166, -26756.87, -31291.35, -20455.94, -16328.49, -20489.33, -21087.42, -24207.10, -22830.79, 0.000, 0.000, 0.000, 10:39:38.383, 1583739578383
167, -26357.27, -31241.63, -20381.93, -16255.64, -20061.90, -21047.50, -23998.24, -22636.15, 0.000, 0.000, 0.000, 10:39:38.383, 1583739578383
168, -25852.00, -31202.92, -20275.31, -16169.94, -19487.88, -21011.35, -23771.84, -22362.45, 0.000, 0.000, 0.000, 10:39:38.384, 1583739578384
169, -26111.49, -31266.04, -20315.10, -16177.79, -19662.29, -21020.32, -23931.01, -22455.05, 0.000, 0.000, 0.000, 10:39:38.384, 1583739578384
170, -26582.19, -31301.29, -20414.94, -16289.97, -20235.50, -21079.97, -24146.79, -22713.66, 0.000, 0.000, 0.000, 10:39:38.384, 1583739578384
171, -26758.48, -31294.70, -20463.33, -16337.36, -20494.16, -21095.89, -24211.77, -22838.36, 0.000, 0.000, 0.000, 10:39:38.385, 1583739578385
172, -26357.67, -31231.44, -20389.46, -16257.97, -20068.04, -21054.16, -24002.42, -22643.34, 0.000, 0.000, 0.000, 10:39:38.385, 1583739578385
173, -25851.00, -31193.13, -20288.37, -16180.99, -19498.43, -21024.97, -23781.34, -22373.65, 0.000, -0.020, 0.970, 10:39:38.385, 1583739578385
174, -26098.66, -31248.65, -20318.90, -16182.48, -19663.63, -21025.86, -23935.77, -22457.62, 0.000, 0.000, 0.000, 10:39:38.385, 1583739578385
175, -26573.85, -31294.14, -20411.03, -16278.78, -20231.70, -21075.10, -24148.38, -22709.68, 0.000, 0.000, 0.000, 10:39:38.385, 1583739578385
176, -26758.64, -31292.80, -20461.23, -16328.64, -20496.06, -21092.74, -24215.23, -22836.26, 0.000, 0.000, 0.000, 10:39:38.385, 1583739578385
177, -26365.16, -31243.87, -20389.98, -16260.25, -20077.28, -21056.88, -24010.49, -22647.77, 0.000, 0.000, 0.000, 10:39:38.386, 1583739578386
178, -25855.63, -31198.43, -20289.86, -16186.33, -19503.68, -21026.96, -23786.35, -22378.12, 0.000, 0.000, 0.000, 10:39:38.386, 1583739578386
179, -26103.55, -31255.43, -20331.59, -16193.70, -19670.70, -21036.30, -23945.56, -22466.39, 0.000, 0.000, 0.000, 10:39:38.386, 1583739578386
180, -26577.72, -31295.97, -20429.09, -16295.78, -20241.40, -21090.81, -24162.17, -22721.31, 0.000, 0.000, 0.000, 10:39:38.386, 1583739578386
181, -26759.55, -31295.59, -20473.26, -16346.14, -20503.79, -21106.68, -24225.36, -22846.81, 0.000, 0.000, 0.000, 10:39:38.386, 1583739578386
182, -26369.09, -31240.61, -20399.90, -16271.82, -20086.37, -21067.26, -24019.59, -22656.85, 0.000, 0.000, 0.000, 10:39:38.386, 1583739578386
183, -25854.96, -31186.61, -20291.29, -16183.15, -19505.18, -21027.25, -23789.30, -22379.64, -0.002, -0.018, 0.970, 10:39:38.386, 1583739578386
184, -26097.05, -31247.80, -20322.59, -16180.29, -19659.54, -21027.02, -23939.95, -22460.55, 0.000, 0.000, 0.000, 10:39:38.387, 1583739578387
185, -26570.77, -31291.93, -20419.08, -16286.13, -20228.84, -21081.20, -24154.43, -22714.22, 0.000, 0.000, 0.000, 10:39:38.387, 1583739578387
186, -26761.29, -31299.06, -20470.04, -16340.71, -20500.66, -21101.59, -24225.04, -22844.46, 0.000, 0.000, 0.000, 10:39:38.387, 1583739578387
187, -26379.80, -31256.59, -20400.08, -16271.04, -20086.30, -21064.66, -24024.86, -22658.77, 0.000, 0.000, 0.000, 10:39:38.387, 1583739578387
188, -25867.34, -31210.90, -20292.12, -16184.96, -19504.06, -21025.55, -23793.86, -22378.88, 0.000, 0.000, 0.000, 10:39:38.388, 1583739578388
189, -26107.04, -31257.51, -20326.38, -16184.25, -19658.89, -21026.89, -23944.89, -22459.39, 0.000, 0.000, 0.000, 10:39:38.388, 1583739578388
190, -26581.59, -31299.13, -20425.29, -16291.31, -20230.18, -21081.85, -24161.16, -22715.59, 0.000, 0.000, 0.000, 10:39:38.388, 1583739578388
191, -26768.69, -31299.41, -20472.32, -16344.53, -20499.88, -21100.13, -24226.03, -22846.43, 0.000, 0.000, 0.000, 10:39:38.388, 1583739578388
192, -26383.73, -31249.08, -20394.16, -16268.92, -20085.03, -21059.54, -24020.03, -22660.82, 0.000, 0.000, 0.000, 10:39:38.388, 1583739578388
193, -25863.16, -31206.21, -20285.59, -16182.15, -19502.43, -21021.23, -23787.80, -22381.85, -0.004, -0.024, 0.970, 10:39:38.388, 1583739578388
194, -26097.00, -31255.76, -20318.07, -16181.72, -19652.73, -21021.75, -23936.28, -22459.26, 0.000, 0.000, 0.000, 10:39:38.388, 1583739578388
195, -26572.27, -31296.29, -20417.11, -16288.32, -20221.71, -21077.89, -24152.89, -22714.96, 0.000, 0.000, 0.000, 10:39:38.388, 1583739578388
196, -26761.97, -31301.47, -20471.22, -16342.95, -20496.48, -21100.29, -24222.65, -22846.52, 0.000, 0.000, 0.000, 10:39:38.389, 1583739578389
197, -26383.98, -31252.74, -20402.47, -16275.24, -20089.77, -21066.45, -24022.31, -22665.45, 0.000, 0.000, 0.000, 10:39:38.389, 1583739578389
198, -25867.25, -31198.59, -20297.24, -16193.28, -19508.56, -21034.80, -23790.62, -22390.70, 0.000, 0.000, 0.000, 10:39:38.389, 1583739578389
199, -26095.15, -31238.04, -20329.22, -16192.36, -19655.47, -21035.58, -23936.84, -22467.32, 0.000, 0.000, 0.000, 10:39:38.389, 1583739578389
200, -26566.86, -31290.99, -20424.64, -16289.44, -20221.49, -21083.17, -24150.86, -22717.06, 0.000, 0.000, 0.000, 10:39:38.389, 1583739578389
201, -26761.70, -31303.15, -20477.26, -16346.30, -20502.20, -21103.60, -24223.10, -22850.84, 0.000, 0.000, 0.000, 10:39:38.389, 1583739578389
202, -26382.48, -31256.54, -20407.63, -16280.67, -20098.15, -21069.45, -24025.02, -22668.89, 0.000, 0.000, 0.000, 10:39:38.389, 1583739578389
203, -25864.57, -31207.64, -20302.27, -16193.30, -19512.27, -21032.57, -23795.04, -22388.69, 0.000, 0.000, 0.000, 10:39:38.389, 1583739578389
204, -26095.73, -31261.46, -20329.63, -16186.95, -19653.80, -21031.47, -23941.38, -22461.74, 0.000, -0.020, 0.972, 10:39:38.390, 1583739578390
205, -26568.71, -31298.19, -20420.93, -16288.48, -20219.88, -21082.08, -24155.06, -22713.62, 0.000, 0.000, 0.000, 10:39:38.390, 1583739578390
206, -26763.71, -31300.29, -20474.73, -16345.47, -20499.75, -21103.33, -24228.42, -22848.87, 0.000, 0.000, 0.000, 10:39:38.390, 1583739578390
207, -26387.71, -31255.56, -20412.60, -16279.04, -20101.73, -21069.78, -24032.80, -22671.15, 0.000, 0.000, 0.000, 10:39:38.390, 1583739578390
208, -25866.42, -31202.77, -20304.17, -16191.49, -19515.13, -21032.37, -23798.84, -22391.91, 0.000, 0.000, 0.000, 10:39:38.390, 1583739578390
209, -26090.68, -31252.81, -20329.25, -16188.32, -19653.58, -21032.92, -23943.99, -22466.01, 0.000, 0.000, 0.000, 10:39:38.390, 1583739578390
210, -26563.93, -31297.74, -20425.58, -16292.97, -20221.87, -21086.39, -24161.10, -22720.93, 0.000, 0.000, 0.000, 10:39:38.827, 1583739578827
211, -26764.40, -31299.79, -20476.07, -16347.26, -20503.43, -21105.01, -24232.13, -22853.47, 0.000, 0.000, 0.000, 10:39:38.827, 1583739578827
212, -26392.38, -31256.66, -20399.99, -16269.10, -20096.18, -21060.91, -24028.75, -22667.84, 0.000, 0.000, 0.000, 10:39:38.828, 1583739578828
213, -25863.58, -31204.40, -20286.96, -16174.84, -19499.97, -21018.15, -23787.11, -22383.15, 0.000, 0.000, 0.000, 10:39:38.828, 1583739578828
214, -26088.44, -31246.75, -20320.02, -16177.72, -19641.62, -21023.65, -23933.62, -22460.08, 0.000, -0.024, 0.966, 10:39:38.828, 1583739578828
215, -26568.54, -31296.71, -20419.90, -16287.60, -20215.30, -21081.99, -24155.37, -22718.33, 0.000, 0.000, 0.000, 10:39:38.828, 1583739578828
216, -26762.50, -31305.52, -20475.47, -16348.85, -20501.82, -21104.61, -24228.60, -22853.90, 0.000, 0.000, 0.000, 10:39:38.828, 1583739578828
217, -26392.51, -31263.74, -20410.07, -16283.85, -20106.64, -21069.67, -24033.73, -22676.87, 0.000, 0.000, 0.000, 10:39:38.828, 1583739578828
218, -25868.32, -31216.31, -20290.13, -16186.93, -19506.79, -21024.54, -23792.00, -22389.43, 0.000, 0.000, 0.000, 10:39:38.828, 1583739578828
219, -26089.67, -31264.50, -20315.75, -16178.10, -19639.18, -21020.43, -23932.71, -22456.44, 0.000, 0.000, 0.000, 10:39:38.829, 1583739578829
220, -26567.26, -31301.56, -20412.62, -16282.46, -20208.61, -21073.65, -24148.80, -22709.53, 0.000, 0.000, 0.000, 10:39:38.829, 1583739578829
221, -26767.84, -31305.09, -20469.32, -16343.44, -20496.93, -21099.31, -24224.19, -22848.69, 0.000, 0.000, 0.000, 10:39:38.832, 1583739578832
222, -26399.00, -31262.62, -20407.72, -16277.66, -20107.05, -21067.35, -24033.11, -22676.31, 0.000, 0.000, 0.000, 10:39:38.832, 1583739578832
223, -25873.02, -31219.28, -20301.51, -16197.10, -19518.53, -21034.64, -23798.35, -22399.17, 0.000, 0.000, 0.000, 10:39:38.832, 1583739578832
224, -26086.65, -31257.60, -20327.10, -16191.02, -19647.76, -21033.13, -23938.52, -22466.10, 0.002, -0.020, 0.964, 10:39:38.832, 1583739578832
225, -26567.46, -31290.27, -20424.60, -16295.92, -20218.11, -21088.47, -24159.20, -22722.18, 0.000, 0.000, 0.000, 10:39:38.832, 1583739578832
226, -26770.66, -31294.83, -20483.92, -16356.87, -20511.46, -21112.54, -24238.77, -22863.22, 0.000, 0.000, 0.000, 10:39:38.832, 1583739578832
227, -26404.54, -31258.82, -20414.74, -16282.89, -20117.78, -21071.86, -24044.13, -22685.59, 0.000, 0.000, 0.000, 10:39:38.832, 1583739578832
228, -25874.80, -31213.07, -20297.39, -16189.28, -19516.92, -21030.24, -23801.68, -22399.55, 0.000, 0.000, 0.000, 10:39:38.833, 1583739578833
229, -26088.24, -31253.19, -20322.38, -16183.53, -19641.60, -21028.74, -23937.96, -22465.80, 0.000, 0.000, 0.000, 10:39:38.833, 1583739578833
230, -26563.53, -31289.92, -20418.88, -16288.99, -20210.92, -21082.97, -24156.40, -22721.04, 0.000, 0.000, 0.000, 10:39:38.833, 1583739578833
231, -26768.61, -31310.26, -20471.83, -16345.45, -20500.59, -21104.34, -24231.53, -22859.35, 0.000, 0.000, 0.000, 10:39:38.833, 1583739578833
232, -26408.09, -31266.20, -20401.93, -16274.51, -20109.57, -21064.42, -24038.36, -22682.68, 0.000, 0.000, 0.000, 10:39:38.833, 1583739578833
233, -25876.64, -31210.23, -20289.04, -16186.26, -19510.86, -21025.62, -23797.74, -22396.94, 0.000, 0.000, 0.000, 10:39:38.833, 1583739578833
234, -26081.04, -31254.98, -20313.13, -16177.48, -19633.03, -21023.22, -23932.24, -22458.12, 0.000, -0.016, 0.966, 10:39:38.833, 1583739578833
235, -26563.53, -31297.34, -20411.86, -16280.58, -20202.76, -21076.22, -24152.54, -22710.47, 0.000, 0.000, 0.000, 10:39:38.833, 1583739578833
236, -26775.38, -31301.47, -20470.15, -16342.12, -20498.96, -21098.75, -24230.99, -22850.43, 0.000, 0.000, 0.000, 10:39:38.834, 1583739578834
237, -26414.58, -31262.36, -20400.01, -16275.67, -20108.23, -21060.93, -24038.32, -22676.83, 0.000, 0.000, 0.000, 10:39:38.834, 1583739578834
238, -25878.85, -31214.90, -20288.39, -16184.05, -19505.63, -21018.98, -23795.24, -22388.45, 0.000, 0.000, 0.000, 10:39:38.834, 1583739578834
239, -26075.79, -31255.74, -20317.36, -16180.49, -19624.50, -21017.48, -23931.16, -22452.10, 0.000, 0.000, 0.000, 10:39:38.834, 1583739578834
240, -26557.36, -31296.22, -20417.24, -16286.75, -20200.52, -21074.12, -24154.75, -22710.24, 0.000, 0.000, 0.000, 10:39:38.834, 1583739578834
241, -26769.97, -31300.02, -20469.55, -16342.63, -20496.39, -21094.77, -24228.40, -22848.11, 0.000, 0.000, 0.000, 10:39:38.834, 1583739578834
242, -26412.97, -31249.91, -20400.46, -16265.50, -20111.96, -21052.01, -24034.38, -22671.22, 0.000, 0.000, 0.000, 10:39:38.834, 1583739578834
243, -25875.54, -31199.64, -20290.87, -16180.29, -19513.99, -21015.24, -23791.96, -22386.70, 0.000, 0.000, 0.000, 10:39:38.835, 1583739578835
244, -26077.06, -31257.44, -20316.95, -16175.20, -19629.08, -21015.85, -23927.36, -22450.63, 0.004, -0.020, 0.974, 10:39:38.835, 1583739578835
245, -26556.08, -31296.38, -20411.32, -16277.66, -20197.06, -21069.49, -24148.27, -22706.78, 0.000, 0.000, 0.000, 10:39:38.835, 1583739578835
246, -26771.67, -31303.06, -20466.58, -16339.28, -20494.36, -21094.48, -24226.41, -22850.54, 0.000, 0.000, 0.000, 10:39:38.835, 1583739578835
247, -26418.82, -31260.28, -20401.64, -16268.94, -20113.91, -21055.92, -24035.50, -22678.95, 0.000, 0.000, 0.000, 10:39:38.835, 1583739578835
248, -25880.59, -31212.91, -20293.44, -16183.87, -19514.82, -21022.35, -23795.42, -22394.97, 0.000, 0.000, 0.000, 10:39:38.836, 1583739578836
249, -26075.21, -31246.11, -20316.42, -16172.09, -19624.00, -21019.31, -23928.23, -22453.80, 0.000, 0.000, 0.000, 10:39:38.836, 1583739578836
250, -26555.93, -31287.35, -20413.09, -16274.24, -20193.39, -21072.80, -24150.37, -22709.95, 0.000, 0.000, 0.000, 10:39:38.836, 1583739578836
251, -26764.69, -31305.14, -20468.45, -16337.69, -20497.04, -21095.67, -24227.14, -22851.13, 0.000, 0.000, 0.000, 10:39:38.836, 1583739578836
252, -26413.70, -31256.14, -20405.85, -16275.06, -20121.51, -21059.99, -24039.12, -22682.48, 0.000, 0.000, 0.000, 10:39:38.836, 1583739578836
253, -25875.45, -31204.29, -20296.19, -16191.18, -19519.80, -21024.63, -23797.63, -22397.39, 0.000, 0.000, 0.000, 10:39:38.837, 1583739578837
254, -26072.15, -31255.99, -20320.66, -16177.79, -19625.26, -21019.83, -23932.71, -22452.77, 0.002, -0.020, 0.972, 10:39:38.837, 1583739578837
255, -26555.08, -31303.13, -20411.90, -16270.19, -20191.58, -21065.58, -24153.76, -22701.86, 0.000, 0.000, 0.000, 10:39:38.837, 1583739578837
0, -26771.02, -31303.15, -20467.85, -16334.63, -20496.71, -21090.21, -24233.92, -22846.43, 0.000, 0.000, 0.000, 10:39:38.837, 1583739578837
1, -26422.71, -31259.16, -20405.96, -16272.34, -20122.92, -21059.10, -24047.88, -22683.02, 0.000, 0.000, 0.000, 10:39:38.837, 1583739578837
2, -25879.14, -31211.06, -20289.95, -16184.85, -19516.27, -21023.00, -23799.96, -22396.13, 0.000, 0.000, 0.000, 10:39:38.838, 1583739578838
3, -26071.90, -31251.80, -20318.23, -16179.91, -19622.86, -21023.22, -23931.81, -22455.21, 0.000, 0.000, 0.000, 10:39:38.838, 1583739578838
4, -26556.82, -31289.76, -20421.92, -16289.30, -20199.40, -21080.55, -24158.97, -22715.25, 0.000, 0.000, 0.000, 10:39:38.838, 1583739578838
5, -26772.52, -31302.05, -20477.73, -16351.80, -20503.41, -21103.58, -24238.48, -22859.98, 0.000, 0.000, 0.000, 10:39:38.838, 1583739578838
6, -26430.24, -31266.33, -20412.08, -16283.71, -20132.77, -21066.34, -24053.43, -22695.22, 0.000, 0.000, 0.000, 10:39:38.838, 1583739578838
7, -25884.68, -31219.26, -20295.32, -16191.63, -19523.64, -21025.48, -23803.65, -22403.46, 0.000, 0.000, 0.000, 10:39:38.838, 1583739578838
8, -26072.97, -31262.40, -20314.63, -16176.67, -19618.73, -21018.55, -23928.01, -22454.38, 0.004, -0.018, 0.972, 10:39:38.839, 1583739578839
9, -26556.51, -31294.59, -20411.05, -16275.85, -20186.44, -21069.69, -24149.34, -22708.70, 0.000, 0.000, 0.000, 10:39:38.839, 1583739578839
10, -26774.33, -31295.37, -20472.16, -16341.00, -20496.57, -21097.25, -24234.70, -22856.29, 0.000, 0.000, 0.000, 10:39:38.839, 1583739578839
11, -26434.16, -31266.11, -20411.75, -16277.19, -20129.85, -21064.42, -24054.90, -22694.57, 0.000, 0.000, 0.000, 10:39:38.839, 1583739578839
12, -25885.17, -31214.01, -20294.98, -16187.16, -19521.74, -21025.44, -23805.81, -22404.85, 0.000, 0.000, 0.000, 10:39:38.839, 1583739578839
13, -26071.52, -31259.36, -20317.98, -16176.65, -19618.21, -21022.62, -23931.86, -22457.40, 0.000, 0.000, 0.000, 10:39:38.839, 1583739578839
14, -26549.78, -31292.13, -20408.19, -16265.86, -20182.28, -21067.23, -24149.32, -22705.26, 0.000, 0.000, 0.000, 10:39:38.839, 1583739578839
15, -26762.44, -31293.27, -20464.68, -16331.68, -20492.95, -21093.45, -24231.55, -22850.46, 0.000, 0.000, 0.000, 10:39:38.839, 1583739578839
16, -26426.04, -31257.57, -20407.23, -16272.38, -20130.67, -21062.03, -24052.51, -22691.18, 0.000, 0.000, 0.000, 10:39:38.840, 1583739578840
17, -25880.95, -31209.43, -20296.32, -16181.92, -19523.26, -21021.32, -23802.75, -22400.52, 0.000, 0.000, 0.000, 10:39:38.840, 1583739578840
18, -26065.64, -31256.43, -20320.64, -16174.30, -19617.68, -21019.11, -23927.90, -22451.90, 0.004, -0.018, 0.974, 10:39:38.841, 1583739578841
19, -26550.27, -31289.76, -20416.20, -16276.32, -20185.88, -21070.81, -24150.93, -22706.29, 0.000, 0.000, 0.000, 10:39:38.841, 1583739578841
20, -26767.38, -31298.99, -20470.87, -16339.93, -20496.26, -21095.64, -24234.16, -22854.61, 0.000, 0.000, 0.000, 10:39:38.841, 1583739578841
21, -26424.46, -31258.06, -20406.40, -16268.81, -20130.23, -21055.32, -24050.63, -22688.61, 0.000, 0.000, 0.000, 10:39:38.841, 1583739578841
22, -25877.98, -31205.65, -20293.80, -16179.56, -19516.49, -21017.19, -23801.46, -22397.65, 0.000, 0.000, 0.000, 10:39:38.841, 1583739578841
23, -26062.04, -31253.08, -20318.00, -16171.33, -19608.83, -21016.25, -23927.61, -22449.06, 0.000, 0.000, 0.000, 10:39:38.841, 1583739578841
24, -26548.64, -31298.28, -20412.15, -16274.13, -20177.12, -21067.01, -24149.72, -22702.13, 0.000, 0.000, 0.000, 10:39:38.842, 1583739578842
25, -26774.51, -31298.86, -20468.41, -16339.44, -20489.87, -21092.49, -24231.46, -22850.84, 0.000, 0.000, 0.000, 10:39:38.842, 1583739578842
26, -26435.74, -31258.18, -20408.73, -16274.91, -20130.90, -21056.88, -24051.35, -22690.57, 0.000, 0.000, 0.000, 10:39:38.842, 1583739578842
27, -25880.88, -31218.17, -20288.28, -16182.26, -19517.54, -21015.56, -23800.90, -22398.48, 0.000, 0.000, 0.000, 10:39:38.842, 1583739578842
28, -26058.71, -31261.04, -20306.94, -16171.64, -19603.64, -21012.16, -23924.86, -22447.54, 0.002, -0.018, 0.976, 10:39:38.842, 1583739578842
29, -26551.35, -31300.42, -20407.68, -16273.75, -20175.60, -21066.09, -24153.65, -22705.37, 0.000, 0.000, 0.000, 10:39:38.842, 1583739578842
30, -26773.79, -31307.17, -20464.59, -16336.75, -20491.95, -21092.92, -24239.26, -22854.41, 0.000, 0.000, 0.000, 10:39:38.843, 1583739578843
31, -26443.65, -31273.89, -20407.83, -16277.34, -20140.35, -21061.47, -24064.09, -22699.58, 0.000, 0.000, 0.000, 10:39:38.843, 1583739578843
32, -25891.50, -31223.15, -20297.71, -16188.36, -19528.85, -21024.97, -23810.93, -22408.23, 0.000, 0.000, 0.000, 10:39:38.843, 1583739578843
33, -26062.83, -31263.96, -20321.63, -16179.62, -19613.68, -21024.68, -23933.35, -22457.89, 0.000, 0.000, 0.000, 10:39:38.843, 1583739578843
34, -26543.41, -31303.04, -20418.12, -16278.26, -20181.54, -21074.39, -24157.21, -22711.07, 0.000, 0.000, 0.000, 10:39:38.843, 1583739578843
35, -26771.55, -31312.31, -20473.06, -16339.73, -20499.39, -21097.95, -24240.38, -22858.30, 0.000, 0.000, 0.000, 10:39:38.843, 1583739578843
36, -26442.98, -31267.16, -20409.64, -16274.89, -20141.42, -21060.64, -24058.57, -22699.11, 0.000, 0.000, 0.000, 10:39:38.844, 1583739578844
37, -25894.43, -31215.80, -20297.30, -16189.35, -19529.93, -21024.38, -23808.41, -22408.00, 0.000, 0.000, 0.000, 10:39:38.844, 1583739578844
38, -26061.39, -31255.96, -20321.45, -16180.14, -19613.65, -21022.40, -23931.27, -22453.09, 0.000, 0.000, 0.000, 10:39:38.844, 1583739578844
39, -26541.55, -31291.37, -20419.14, -16281.32, -20180.03, -21073.71, -24155.91, -22707.16, 0.002, -0.012, 0.974, 10:39:38.844, 1583739578844
40, -26762.03, -31295.59, -20469.21, -16340.26, -20493.11, -21094.10, -24235.93, -22852.04, 0.000, 0.000, 0.000, 10:39:38.844, 1583739578844
41, -26439.97, -31255.72, -20414.43, -16278.57, -20146.45, -21061.02, -24062.90, -22699.04, 0.000, 0.000, 0.000, 10:39:38.845, 1583739578845
42, -25887.16, -31202.27, -20302.02, -16185.61, -19530.89, -21019.54, -23810.22, -22404.45, 0.000, 0.000, 0.000, 10:39:38.845, 1583739578845
43, -26052.28, -31262.00, -20314.85, -16170.77, -19602.30, -21011.55, -23925.89, -22444.97, 0.000, 0.000, 0.000, 10:39:38.845, 1583739578845
44, -26537.94, -31293.65, -20405.46, -16268.18, -20164.78, -21060.66, -24147.64, -22696.27, 0.000, 0.000, 0.000, 10:39:38.845, 1583739578845
45, -26768.02, -31302.23, -20465.05, -16337.16, -20491.38, -21089.81, -24235.30, -22849.49, 0.000, 0.000, 0.000, 10:39:38.845, 1583739578845
46, -26451.14, -31270.29, -20412.82, -16279.87, -20150.28, -21060.64, -24066.50, -22701.37, 0.000, 0.000, 0.000, 10:39:38.845, 1583739578845
47, -25891.39, -31214.72, -20300.23, -16186.08, -19533.08, -21019.15, -23811.74, -22404.58, 0.000, 0.000, 0.000, 10:39:38.846, 1583739578846
48, -26052.95, -31259.79, -20315.32, -16169.65, -19606.10, -21014.37, -23926.31, -22444.50, 0.000, 0.000, 0.000, 10:39:38.846, 1583739578846
49, -26537.58, -31298.07, -20412.64, -16269.81, -20172.94, -21067.44, -24151.55, -22700.12, 0.000, -0.018, 0.976, 10:39:38.846, 1583739578846
50, -26767.53, -31301.81, -20477.55, -16341.85, -20501.40, -21098.86, -24241.58, -22856.58, 0.000, 0.000, 0.000, 10:39:38.847, 1583739578847
51, -26448.86, -31263.74, -20420.51, -16282.89, -20156.69, -21067.10, -24070.86, -22707.43, 0.000, 0.000, 0.000, 10:39:38.847, 1583739578847
52, -25888.53, -31203.53, -20299.09, -16190.26, -19535.11, -21024.77, -23811.42, -22411.71, 0.000, 0.000, 0.000, 10:39:38.847, 1583739578847
53, -26051.16, -31252.07, -20316.91, -16179.96, -19604.76, -21023.31, -23930.49, -22456.64, 0.000, 0.000, 0.000, 10:39:38.848, 1583739578848
54, -26538.31, -31288.33, -20417.51, -16281.43, -20178.44, -21077.74, -24160.80, -22714.00, 0.000, 0.000, 0.000, 10:39:38.848, 1583739578848
55, -26767.80, -31305.49, -20475.47, -16346.72, -20502.07, -21104.31, -24249.23, -22867.33, 0.000, 0.000, 0.000, 10:39:38.848, 1583739578848
56, -26453.62, -31272.97, -20421.69, -16288.92, -20163.26, -21071.88, -24079.00, -22717.93, 0.000, 0.000, 0.000, 10:39:38.848, 1583739578848
57, -25892.88, -31213.56, -20308.28, -16197.24, -19543.49, -21030.60, -23820.52, -22421.73, 0.000, 0.000, 0.000, 10:39:38.848, 1583739578848
58, -26050.33, -31252.52, -20322.47, -16181.75, -19604.87, -21025.32, -23933.73, -22459.03, 0.000, 0.000, 0.000, 10:39:38.849, 1583739578849
59, -26538.25, -31295.15, -20416.06, -16276.94, -20169.07, -21075.04, -24158.26, -22710.40, -0.002, -0.016, 0.970, 10:39:38.849, 1583739578849
60, -26772.90, -31302.92, -20476.59, -16344.40, -20498.98, -21103.13, -24248.20, -22864.34, 0.000, 0.000, 0.000, 10:39:38.849, 1583739578849
61, -26457.92, -31259.45, -20422.36, -16283.38, -20164.20, -21068.75, -24077.05, -22715.56, 0.000, 0.000, 0.000, 10:39:38.849, 1583739578849
62, -25898.94, -31206.74, -20310.85, -16195.09, -19547.72, -21031.40, -23821.37, -22422.02, 0.000, 0.000, 0.000, 10:39:38.849, 1583739578849
63, -26050.31, -31247.54, -20323.41, -16179.18, -19609.74, -21024.36, -23934.07, -22456.89, 0.000, 0.000, 0.000, 10:39:38.850, 1583739578850
64, -26538.14, -31295.17, -20419.30, -16276.63, -20177.97, -21075.21, -24162.39, -22709.57, 0.000, 0.000, 0.000, 10:39:38.850, 1583739578850
65, -26773.90, -31302.77, -20482.62, -16347.82, -20509.63, -21106.93, -24252.85, -22866.08, 0.000, 0.000, 0.000, 10:39:38.850, 1583739578850
66, -26459.99, -31248.12, -20428.31, -16286.73, -20173.10, -21074.28, -24084.99, -22718.38, 0.000, 0.000, 0.000, 10:39:38.850, 1583739578850
67, -25895.86, -31195.05, -20311.14, -16195.89, -19550.78, -21032.48, -23824.97, -22421.35, 0.000, 0.000, 0.000, 10:39:38.850, 1583739578850
68, -26048.30, -31260.34, -20326.27, -16183.42, -19610.23, -21028.95, -23937.13, -22459.28, 0.000, 0.000, 0.000, 10:39:38.851, 1583739578851
69, -26538.65, -31301.74, -20423.84, -16281.61, -20173.83, -21080.51, -24165.43, -22714.00, 0.000, -0.022, 0.970, 10:39:38.851, 1583739578851
70, -26775.69, -31301.70, -20483.83, -16351.89, -20504.75, -21108.72, -24254.32, -22869.37, 0.000, 0.000, 0.000, 10:39:38.851, 1583739578851
71, -26462.77, -31260.81, -20428.69, -16289.86, -20176.38, -21073.16, -24084.21, -22721.93, 0.000, 0.000, 0.000, 10:39:38.851, 1583739578851
72, -25897.80, -31206.54, -20313.24, -16199.90, -19554.65, -21035.03, -23825.75, -22427.58, 0.000, 0.000, 0.000, 10:39:38.851, 1583739578851
73, -26050.11, -31250.11, -20329.67, -16189.52, -19612.22, -21034.71, -23941.11, -22465.98, 0.000, 0.000, 0.000, 10:39:38.851, 1583739578851
74, -26533.96, -31288.51, -20424.96, -16284.99, -20173.54, -21082.59, -24165.39, -22716.26, 0.000, 0.000, 0.000, 10:39:39.308, 1583739579308
75, -26768.22, -31301.02, -20487.99, -16353.74, -20508.75, -21112.50, -24255.82, -22872.43, 0.000, 0.000, 0.000, 10:39:39.308, 1583739579308
76, -26464.89, -31260.10, -20431.60, -16295.67, -20179.58, -21081.74, -24089.97, -22730.52, 0.000, 0.000, 0.000, 10:39:39.311, 1583739579311
77, -25901.42, -31203.41, -20311.05, -16206.80, -19553.57, -21041.04, -23827.74, -22433.30, 0.000, 0.000, 0.000, 10:39:39.311, 1583739579311
