%OpenBCI Raw EEG Data
%Number of channels = 8
%Sample Rate = 250.0 Hz
%First Column = SampleIndex
%Last Column = Timestamp 
%Other Columns = EEG data in microvolts followed by Accel Data (in G) interleaved with Aux Data
0, 0.00, 0.00, 0.00, 0.00, 0.00, 0.00, 0.00, 0.00, 0.000, 0.000, 0.000, 10:32:29.188, 1583739149188
1, -30095.28, -34243.48, -23421.36, -19006.29, -24470.91, -23489.80, -26516.16, -26206.84, -0.002, -0.016, 0.974, 10:32:29.675, 1583739149675
2, -29853.41, -34202.08, -23371.36, -18942.48, -24212.01, -23425.05, -26347.27, -26084.53, 0.000, 0.000, 0.000, 10:32:29.675, 1583739149675
3, -29138.56, -34123.71, -23199.90, -18805.01, -23374.40, -23329.74, -25972.14, -25642.30, 0.000, 0.000, 0.000, 10:32:29.675, 1583739149675
4, -29061.94, -34136.32, -23159.20, -18732.91, -23186.63, -23254.89, -25979.41, -25532.11, 0.000, 0.000, 0.000, 10:32:29.677, 1583739149677
5, -29651.31, -34197.09, -23303.30, -18862.79, -23876.29, -23364.37, -26316.85, -25886.65, 0.000, 0.000, 0.000, 10:32:29.677, 1583739149677
6, -30071.14, -34216.54, -23431.38, -19012.44, -24473.08, -23497.74, -26522.38, -26208.80, 0.000, 0.000, 0.000, 10:32:29.677, 1583739149677
7, -29831.69, -34172.39, -23375.07, -18935.62, -24218.49, -23424.13, -26352.19, -26084.71, 0.000, 0.000, 0.000, 10:32:29.677, 1583739149677
8, -29116.12, -34091.86, -23197.22, -18793.10, -23376.33, -23321.79, -25969.80, -25638.12, 0.002, -0.016, 0.976, 10:32:29.677, 1583739149677
9, -29037.91, -34109.23, -23153.86, -18731.23, -23174.20, -23250.80, -25973.33, -25529.49, 0.000, 0.000, 0.000, 10:32:29.677, 1583739149677
10, -29624.91, -34171.43, -23291.59, -18856.31, -23858.34, -23357.28, -26304.40, -25879.16, 0.000, 0.000, 0.000, 10:32:29.677, 1583739149677
11, -30036.72, -34182.21, -23414.05, -18998.20, -24450.44, -23486.92, -26500.90, -26192.85, 0.000, 0.000, 0.000, 10:32:29.678, 1583739149678
12, -29799.93, -34139.11, -23364.75, -18931.99, -24203.41, -23418.19, -26334.78, -26074.45, 0.000, 0.000, 0.000, 10:32:29.678, 1583739149678
13, -29090.28, -34061.64, -23192.10, -18796.97, -23371.47, -23320.49, -25961.15, -25635.35, 0.000, 0.000, 0.000, 10:32:29.678, 1583739149678
14, -29012.09, -34078.52, -23149.12, -18728.59, -23173.48, -23246.01, -25968.95, -25526.03, 0.000, 0.000, 0.000, 10:32:29.678, 1583739149678
15, -29595.16, -34137.01, -23284.66, -18847.53, -23851.99, -23350.84, -26299.22, -25873.19, 0.000, 0.000, 0.000, 10:32:29.678, 1583739149678
16, -30008.87, -34153.98, -23416.22, -19005.89, -24449.92, -23495.46, -26505.48, -26195.73, 0.000, 0.000, 0.000, 10:32:29.678, 1583739149678
17, -29788.30, -34121.73, -23384.64, -18961.30, -24225.54, -23444.07, -26356.82, -26096.09, 0.000, 0.000, 0.000, 10:32:29.678, 1583739149678
18, -29078.50, -34043.58, -23205.22, -18809.24, -23387.86, -23335.55, -25977.49, -25653.16, 0.000, -0.014, 0.966, 10:32:29.678, 1583739149678
19, -28992.18, -34050.80, -23146.44, -18718.06, -23170.98, -23243.89, -25971.25, -25529.36, 0.000, 0.000, 0.000, 10:32:29.678, 1583739149678
20, -29564.41, -34102.64, -23278.94, -18839.75, -23839.70, -23345.10, -26292.49, -25865.53, 0.000, 0.000, 0.000, 10:32:29.678, 1583739149678
21, -29977.40, -34123.65, -23411.02, -19000.17, -24436.18, -23490.16, -26494.01, -26183.23, 0.000, 0.000, 0.000, 10:32:29.680, 1583739149680
22, -29760.07, -34087.28, -23371.23, -18947.44, -24210.60, -23430.55, -26340.35, -26081.18, 0.000, 0.000, 0.000, 10:32:29.680, 1583739149680
23, -29047.88, -34004.64, -23188.23, -18792.03, -23373.91, -23317.14, -25961.04, -25637.54, 0.000, 0.000, 0.000, 10:32:29.684, 1583739149684
24, -28965.04, -34023.33, -23145.54, -18716.77, -23170.35, -23236.85, -25965.73, -25522.49, 0.000, 0.000, 0.000, 10:32:29.684, 1583739149684
25, -29538.25, -34080.35, -23284.46, -18846.86, -23842.92, -23345.88, -26292.58, -25864.19, 0.000, 0.000, 0.000, 10:32:29.684, 1583739149684
26, -29949.17, -34094.43, -23411.75, -19000.79, -24434.30, -23488.93, -26489.63, -26179.08, 0.000, 0.000, 0.000, 10:32:29.684, 1583739149684
27, -29743.67, -34065.20, -23373.13, -18932.98, -24210.20, -23421.25, -26341.17, -26075.52, 0.000, 0.000, 0.000, 10:32:29.684, 1583739149684
28, -29039.52, -33988.84, -23190.00, -18782.75, -23375.01, -23309.67, -25960.86, -25633.52, 0.002, -0.018, 0.970, 10:32:29.684, 1583739149684
29, -28946.78, -33998.93, -23132.54, -18702.75, -23153.03, -23222.37, -25950.53, -25509.29, 0.000, 0.000, 0.000, 10:32:29.684, 1583739149684
30, -29523.30, -34062.58, -23267.56, -18825.06, -23819.00, -23327.29, -26275.17, -25847.56, 0.000, 0.000, 0.000, 10:32:29.684, 1583739149684
31, -29929.59, -34075.77, -23395.77, -18981.73, -24413.20, -23471.72, -26472.20, -26160.73, 0.000, 0.000, 0.000, 10:32:29.686, 1583739149686
32, -29727.10, -34041.35, -23362.42, -18929.98, -24204.95, -23414.72, -26330.94, -26069.42, 0.000, 0.000, 0.000, 10:32:29.686, 1583739149686
33, -29026.33, -33967.86, -23191.65, -18794.84, -23380.75, -23315.80, -25960.66, -25637.36, 0.000, 0.000, 0.000, 10:32:29.686, 1583739149686
34, -28937.06, -33990.52, -23152.99, -18727.45, -23171.96, -23242.08, -25962.15, -25524.66, 0.000, 0.000, 0.000, 10:32:29.686, 1583739149686
35, -29506.69, -34048.61, -23285.73, -18845.02, -23831.47, -23344.81, -26284.22, -25861.24, 0.000, 0.000, 0.000, 10:32:29.686, 1583739149686
36, -29920.13, -34062.20, -23415.15, -19004.66, -24430.50, -23493.18, -26485.65, -26177.00, 0.000, 0.000, 0.000, 10:32:29.686, 1583739149686
37, -29725.58, -34034.91, -23382.34, -18956.02, -24228.75, -23435.83, -26347.95, -26087.93, 0.000, 0.000, 0.000, 10:32:29.686, 1583739149686
38, -29024.57, -33963.86, -23208.51, -18809.60, -23399.50, -23327.24, -25973.89, -25652.02, 0.002, -0.018, 0.970, 10:32:29.686, 1583739149686
39, -28924.70, -33979.14, -23143.93, -18713.73, -23160.45, -23228.85, -25956.88, -25516.91, 0.000, 0.000, 0.000, 10:32:29.686, 1583739149686
40, -29492.57, -34039.25, -23270.00, -18827.37, -23812.14, -23326.15, -26273.04, -25844.56, 0.000, 0.000, 0.000, 10:32:29.687, 1583739149687
41, -29905.52, -34049.68, -23403.21, -18991.25, -24413.22, -23477.38, -26477.07, -26160.77, 0.000, 0.000, 0.000, 10:32:29.687, 1583739149687
42, -29714.41, -34016.70, -23368.01, -18931.77, -24215.14, -23412.76, -26336.48, -26067.25, 0.000, 0.000, 0.000, 10:32:29.687, 1583739149687
43, -29017.55, -33943.56, -23192.44, -18786.46, -23391.28, -23306.81, -25962.76, -25631.37, 0.000, 0.000, 0.000, 10:32:29.687, 1583739149687
44, -28919.00, -33967.83, -23144.47, -18713.60, -23164.54, -23227.24, -25955.11, -25509.87, 0.000, 0.000, 0.000, 10:32:29.687, 1583739149687
45, -29485.97, -34026.66, -23280.66, -18833.85, -23820.23, -23332.20, -26277.58, -25843.38, 0.000, 0.000, 0.000, 10:32:29.687, 1583739149687
46, -29895.03, -34036.05, -23403.48, -18985.86, -24412.62, -23477.69, -26473.12, -26154.58, 0.000, 0.000, 0.000, 10:32:29.687, 1583739149687
47, -29710.65, -34010.32, -23374.69, -18937.49, -24224.24, -23421.21, -26338.80, -26072.44, 0.000, 0.000, 0.000, 10:32:29.687, 1583739149687
48, -29011.49, -33937.70, -23200.55, -18793.08, -23397.45, -23311.97, -25960.75, -25636.13, 0.000, -0.020, 0.976, 10:32:29.687, 1583739149687
49, -28909.61, -33962.45, -23150.28, -18716.10, -23159.36, -23226.79, -25947.36, -25505.75, 0.000, 0.000, 0.000, 10:32:29.687, 1583739149687
50, -29472.72, -34021.05, -23282.89, -18832.73, -23808.65, -23325.74, -26265.31, -25832.42, 0.000, 0.000, 0.000, 10:32:29.687, 1583739149687
51, -29882.76, -34031.16, -23403.19, -18989.17, -24405.82, -23473.67, -26463.39, -26144.61, 0.000, 0.000, 0.000, 10:32:29.687, 1583739149687
52, -29707.35, -34004.63, -23368.30, -18935.66, -24219.25, -23412.40, -26330.85, -26062.07, 0.000, 0.000, 0.000, 10:32:29.687, 1583739149687
53, -29017.57, -33938.35, -23195.10, -18794.29, -23395.82, -23306.68, -25958.22, -25632.51, 0.000, 0.000, 0.000, 10:32:29.687, 1583739149687
54, -28914.51, -33961.78, -23149.72, -18720.08, -23163.04, -23228.27, -25948.09, -25507.83, 0.000, 0.000, 0.000, 10:32:29.689, 1583739149689
55, -29475.07, -34018.50, -23282.94, -18836.51, -23812.43, -23330.37, -26267.37, -25835.91, 0.000, 0.000, 0.000, 10:32:29.689, 1583739149689
56, -29883.14, -34029.90, -23403.19, -18988.97, -24405.18, -23478.76, -26462.83, -26147.12, 0.000, 0.000, 0.000, 10:32:29.689, 1583739149689
57, -29708.24, -34006.77, -23369.06, -18932.93, -24222.76, -23417.61, -26331.11, -26066.85, 0.000, 0.000, 0.000, 10:32:29.689, 1583739149689
58, -29016.12, -33942.04, -23202.09, -18793.44, -23406.01, -23315.04, -25964.93, -25640.98, 0.004, -0.020, 0.976, 10:32:29.689, 1583739149689
59, -28908.74, -33966.13, -23155.42, -18717.39, -23165.84, -23233.16, -25953.26, -25511.59, 0.000, 0.000, 0.000, 10:32:29.689, 1583739149689
60, -29464.72, -34025.03, -23279.25, -18825.58, -23803.60, -23326.82, -26266.79, -25832.54, 0.000, 0.000, 0.000, 10:32:29.689, 1583739149689
61, -29876.32, -34034.08, -23409.94, -18992.72, -24404.62, -23481.96, -26468.73, -26148.97, 0.000, 0.000, 0.000, 10:32:29.689, 1583739149689
62, -29714.72, -34013.97, -23383.72, -18945.72, -24235.64, -23426.46, -26347.47, -26077.42, 0.000, 0.000, 0.000, 10:32:29.689, 1583739149689
63, -29022.26, -33948.77, -23192.44, -18790.33, -23405.38, -23310.16, -25967.29, -25639.89, 0.000, 0.000, 0.000, 10:32:29.690, 1583739149690
64, -28904.85, -33961.89, -23130.34, -18706.49, -23151.18, -23220.87, -25944.32, -25502.45, 0.000, 0.000, 0.000, 10:32:29.690, 1583739149690
65, -29466.97, -34024.43, -23269.08, -18832.64, -23796.76, -23325.32, -26266.43, -25831.29, 0.000, 0.000, 0.000, 10:32:29.690, 1583739149690
66, -29881.76, -34044.97, -23400.96, -18998.71, -24401.24, -23483.28, -26468.46, -26148.84, 0.000, 0.000, 0.000, 10:32:29.690, 1583739149690
67, -29721.78, -34021.23, -23374.13, -18940.73, -24234.19, -23422.82, -26344.12, -26074.56, 0.000, 0.000, 0.000, 10:32:29.690, 1583739149690
68, -29034.00, -33952.12, -23201.98, -18788.52, -23414.79, -23310.86, -25969.02, -25642.97, 0.000, 0.000, 0.000, 10:32:29.690, 1583739149690
69, -28911.29, -33964.35, -23141.77, -18703.76, -23153.90, -23220.94, -25943.78, -25501.84, 0.000, -0.018, 0.974, 10:32:29.690, 1583739149690
70, -29468.11, -34024.67, -23268.05, -18818.31, -23791.20, -23317.79, -26259.59, -25823.62, 0.000, 0.000, 0.000, 10:32:29.690, 1583739149690
71, -29883.16, -34041.57, -23402.30, -18989.35, -24399.88, -23481.76, -26466.34, -26144.86, 0.000, 0.000, 0.000, 10:32:29.690, 1583739149690
72, -29722.23, -34012.38, -23378.36, -18947.69, -24242.16, -23428.58, -26346.40, -26079.14, 0.000, 0.000, 0.000, 10:32:29.690, 1583739149690
73, -29036.39, -33944.09, -23206.12, -18801.59, -23427.02, -23318.93, -25975.43, -25650.77, 0.000, 0.000, 0.000, 10:32:29.690, 1583739149690
74, -28911.62, -33962.85, -23149.90, -18710.73, -23162.26, -23227.31, -25949.99, -25508.06, 0.000, 0.000, 0.000, 10:32:29.690, 1583739149690
75, -29464.67, -34022.06, -23274.36, -18818.42, -23794.64, -23320.29, -26262.76, -25826.99, 0.000, 0.000, 0.000, 10:32:29.690, 1583739149690
76, -29878.85, -34040.63, -23391.01, -18978.29, -24391.52, -23474.83, -26460.24, -26139.76, 0.000, 0.000, 0.000, 10:32:29.691, 1583739149691
77, -29728.42, -34020.27, -23366.38, -18934.07, -24232.69, -23420.85, -26342.42, -26075.14, 0.000, 0.000, 0.000, 10:32:29.691, 1583739149691
78, -29036.97, -33950.00, -23196.73, -18786.04, -23416.29, -23307.97, -25967.47, -25644.40, 0.000, 0.000, 0.000, 10:32:29.691, 1583739149691
79, -28904.56, -33965.57, -23144.72, -18705.53, -23153.39, -23220.94, -25940.99, -25500.17, 0.004, -0.022, 0.980, 10:32:29.691, 1583739149691
80, -29460.47, -34026.95, -23276.81, -18826.67, -23785.90, -23322.35, -26258.76, -25822.01, 0.000, 0.000, 0.000, 10:32:29.691, 1583739149691
81, -29879.74, -34040.72, -23414.39, -19001.53, -24400.08, -23491.10, -26468.15, -26144.63, 0.000, 0.000, 0.000, 10:32:29.691, 1583739149691
82, -29732.47, -34018.39, -23397.56, -18959.40, -24257.83, -23439.80, -26354.65, -26087.32, 0.000, 0.000, 0.000, 10:32:29.691, 1583739149691
83, -29050.03, -33955.23, -23221.58, -18812.17, -23440.14, -23329.83, -25983.46, -25663.20, 0.000, 0.000, 0.000, 10:32:29.691, 1583739149691
84, -28911.76, -33970.49, -23146.95, -18709.30, -23155.49, -23228.85, -25947.65, -25508.73, 0.000, 0.000, 0.000, 10:32:29.692, 1583739149692
85, -29464.78, -34029.32, -23267.45, -18817.08, -23780.71, -23321.52, -26261.98, -25824.82, 0.000, 0.000, 0.000, 10:32:29.692, 1583739149692
86, -29879.25, -34042.58, -23391.81, -18980.12, -24386.96, -23479.19, -26460.75, -26138.62, 0.000, 0.000, 0.000, 10:32:29.692, 1583739149692
87, -29738.03, -34028.21, -23373.80, -18940.89, -24244.47, -23427.13, -26349.49, -26081.18, 0.000, 0.000, 0.000, 10:32:29.692, 1583739149692
88, -29058.14, -33961.62, -23212.96, -18805.71, -23435.33, -23323.13, -25985.42, -25661.01, 0.000, 0.000, 0.000, 10:32:29.692, 1583739149692
89, -28919.45, -33977.15, -23155.76, -18726.67, -23158.91, -23238.46, -25956.23, -25516.06, 0.004, -0.022, 0.972, 10:32:29.692, 1583739149692
90, -29463.62, -34036.99, -23277.60, -18828.60, -23781.56, -23326.59, -26266.79, -25825.25, 0.000, 0.000, 0.000, 10:32:29.692, 1583739149692
91, -29879.12, -34046.15, -23400.46, -18983.60, -24386.00, -23482.90, -26464.67, -26139.47, 0.000, 0.000, 0.000, 10:32:29.692, 1583739149692
92, -29737.79, -34021.61, -23373.87, -18937.60, -24247.75, -23428.67, -26351.03, -26082.96, 0.000, 0.000, 0.000, 10:32:29.693, 1583739149693
93, -29054.45, -33956.32, -23205.22, -18798.20, -23437.50, -23322.35, -25982.14, -25662.08, 0.000, 0.000, 0.000, 10:32:29.695, 1583739149695
94, -28904.72, -33966.38, -23145.23, -18712.37, -23149.50, -23231.42, -25945.66, -25508.41, 0.000, 0.000, 0.000, 10:32:29.695, 1583739149695
95, -29453.03, -34025.63, -23270.20, -18817.58, -23769.47, -23322.05, -26257.55, -25819.30, 0.000, 0.000, 0.000, 10:32:29.695, 1583739149695
96, -29868.32, -34036.59, -23395.19, -18977.14, -24383.94, -23480.73, -26461.42, -26133.84, 0.000, 0.000, 0.000, 10:32:29.695, 1583739149695
97, -29732.65, -34017.05, -23381.91, -18941.78, -24257.81, -23432.81, -26359.03, -26085.80, 0.000, 0.000, 0.000, 10:32:29.695, 1583739149695
98, -29049.87, -33949.13, -23218.32, -18805.68, -23450.96, -23328.00, -25989.91, -25666.75, 0.000, 0.000, 0.000, 10:32:29.696, 1583739149696
99, -28898.17, -33958.94, -23157.55, -18721.31, -23159.63, -23238.66, -25949.97, -25510.85, 0.004, -0.022, 0.968, 10:32:29.696, 1583739149696
100, -29439.28, -34013.63, -23272.90, -18811.05, -23766.47, -23317.21, -26255.74, -25811.62, 0.000, 0.000, 0.000, 10:32:29.696, 1583739149696
101, -29864.30, -34035.45, -23397.83, -18981.14, -24379.18, -23482.09, -26459.35, -26130.78, 0.000, 0.000, 0.000, 10:32:29.696, 1583739149696
102, -29739.62, -34015.60, -23383.34, -18951.39, -24256.58, -23435.78, -26353.02, -26085.54, 0.000, 0.000, 0.000, 10:32:29.696, 1583739149696
103, -29058.83, -33953.77, -23219.53, -18808.12, -23446.82, -23325.07, -25983.12, -25664.92, 0.000, 0.000, 0.000, 10:32:29.696, 1583739149696
104, -28900.07, -33969.78, -23155.83, -18710.04, -23147.24, -23227.31, -25938.93, -25501.39, 0.000, 0.000, 0.000, 10:32:29.696, 1583739149696
105, -29445.52, -34030.11, -23270.71, -18806.11, -23757.15, -23309.20, -26247.54, -25804.84, 0.000, 0.000, 0.000, 10:32:29.696, 1583739149696
106, -29868.57, -34047.83, -23398.50, -18982.08, -24376.81, -23477.87, -26455.35, -26127.04, 0.000, 0.000, 0.000, 10:32:29.696, 1583739149696
107, -29745.16, -34024.11, -23382.12, -18947.73, -24258.12, -23431.78, -26353.91, -26084.69, 0.000, 0.000, 0.000, 10:32:29.697, 1583739149697
108, -29069.61, -33958.54, -23218.37, -18806.04, -23458.07, -23327.20, -25993.47, -25670.62, 0.000, 0.000, 0.000, 10:32:29.697, 1583739149697
109, -28910.15, -33970.31, -23158.80, -18719.79, -23157.77, -23240.76, -25956.68, -25513.60, 0.008, -0.024, 0.970, 10:32:29.697, 1583739149697
110, -29449.54, -34029.77, -23277.49, -18819.14, -23764.84, -23325.18, -26264.15, -25815.97, 0.000, 0.000, 0.000, 10:32:29.697, 1583739149697
111, -29876.62, -34050.85, -23406.75, -18993.08, -24385.62, -23494.23, -26468.76, -26139.94, 0.000, 0.000, 0.000, 10:32:29.697, 1583739149697
112, -29758.91, -34033.46, -23388.91, -18960.72, -24273.48, -23447.49, -26367.93, -26101.85, 0.000, 0.000, 0.000, 10:32:29.698, 1583739149698
113, -29075.95, -33957.77, -23214.37, -18805.46, -23460.52, -23328.89, -25995.32, -25677.06, 0.000, 0.000, 0.000, 10:32:29.698, 1583739149698
114, -28912.07, -33974.02, -23155.87, -18717.06, -23154.37, -23239.96, -25952.41, -25514.45, 0.000, 0.000, 0.000, 10:32:29.698, 1583739149698
115, -29454.03, -34037.32, -23274.42, -18821.11, -23760.51, -23325.74, -26261.98, -25818.88, 0.000, 0.000, 0.000, 10:32:29.698, 1583739149698
116, -29877.82, -34047.61, -23402.14, -18992.08, -24380.41, -23492.44, -26468.22, -26139.18, 0.000, 0.000, 0.000, 10:32:29.698, 1583739149698
117, -29761.37, -34033.75, -23394.79, -18968.05, -24279.00, -23451.74, -26374.63, -26105.29, 0.000, 0.000, 0.000, 10:32:29.698, 1583739149698
118, -29077.85, -33963.59, -23231.46, -18826.25, -23475.25, -23343.18, -26006.50, -25689.11, 0.000, 0.000, 0.000, 10:32:29.698, 1583739149698
119, -28896.18, -33965.91, -23156.29, -18719.54, -23151.91, -23240.92, -25948.01, -25513.46, 0.006, -0.024, 0.970, 10:32:29.698, 1583739149698
120, -29434.27, -34026.77, -23273.84, -18817.91, -23754.63, -23323.22, -26254.34, -25814.16, 0.000, 0.000, 0.000, 10:32:29.700, 1583739149700
121, -29862.73, -34039.70, -23405.36, -18998.24, -24379.43, -23494.19, -26461.87, -26137.10, 0.000, 0.000, 0.000, 10:32:30.153, 1583739150153
122, -29753.77, -34020.94, -23392.29, -18965.14, -24277.44, -23445.66, -26366.47, -26100.82, 0.000, 0.000, 0.000, 10:32:30.154, 1583739150154
123, -29079.30, -33958.45, -23225.61, -18817.46, -23473.91, -23333.30, -25998.43, -25682.80, 0.000, 0.000, 0.000, 10:32:30.154, 1583739150154
124, -28895.73, -33966.89, -23157.17, -18724.79, -23150.21, -23237.92, -25942.13, -25508.57, 0.000, 0.000, 0.000, 10:32:30.154, 1583739150154
125, -29433.16, -34027.71, -23274.65, -18820.66, -23746.80, -23317.23, -26247.74, -25805.47, 0.000, 0.000, 0.000, 10:32:30.154, 1583739150154
126, -29865.30, -34041.46, -23400.69, -18989.17, -24371.22, -23484.24, -26456.44, -26127.80, 0.000, 0.000, 0.000, 10:32:30.154, 1583739150154
127, -29760.70, -34020.18, -23388.53, -18960.18, -24276.83, -23441.59, -26365.92, -26097.52, 0.000, 0.000, 0.000, 10:32:30.154, 1583739150154
128, -29085.47, -33954.11, -23218.72, -18811.52, -23472.06, -23329.30, -25996.29, -25678.76, 0.000, 0.000, 0.000, 10:32:30.155, 1583739150155
129, -28897.68, -33965.55, -23150.06, -18714.13, -23144.02, -23233.21, -25939.06, -25501.71, 0.008, -0.018, 0.974, 10:32:30.155, 1583739150155
130, -29430.23, -34029.61, -23263.38, -18806.87, -23736.26, -23309.09, -26243.25, -25796.55, 0.000, 0.000, 0.000, 10:32:30.155, 1583739150155
131, -29858.29, -34042.60, -23389.63, -18985.17, -24362.75, -23478.58, -26452.89, -26120.25, 0.000, 0.000, 0.000, 10:32:30.155, 1583739150155
132, -29761.26, -34025.32, -23382.20, -18956.34, -24279.83, -23436.21, -26369.56, -26094.90, 0.000, 0.000, 0.000, 10:32:30.158, 1583739150158
133, -29086.53, -33956.46, -23212.17, -18807.16, -23476.35, -23321.68, -26001.31, -25677.37, 0.000, 0.000, 0.000, 10:32:30.158, 1583739150158
134, -28896.56, -33964.64, -23143.85, -18717.51, -23142.37, -23230.32, -25942.13, -25500.46, 0.000, 0.000, 0.000, 10:32:30.158, 1583739150158
135, -29434.43, -34031.04, -23267.29, -18819.50, -23738.60, -23315.01, -26252.21, -25803.26, 0.000, 0.000, 0.000, 10:32:30.158, 1583739150158
136, -29870.29, -34046.67, -23397.83, -18990.38, -24371.69, -23484.46, -26462.99, -26129.77, 0.000, 0.000, 0.000, 10:32:30.159, 1583739150159
137, -29771.43, -34018.37, -23383.70, -18953.65, -24283.36, -23435.13, -26370.50, -26097.74, 0.000, 0.000, 0.000, 10:32:30.159, 1583739150159
138, -29097.97, -33952.99, -23219.37, -18807.56, -23481.04, -23322.50, -26001.56, -25679.11, 0.000, 0.000, 0.000, 10:32:30.159, 1583739150159
139, -28902.91, -33971.90, -23147.22, -18712.75, -23136.87, -23227.75, -25935.44, -25496.48, 0.008, -0.016, 0.972, 10:32:30.159, 1583739150159
140, -29435.82, -34035.63, -23262.20, -18810.09, -23724.56, -23307.37, -26241.21, -25793.78, 0.000, 0.000, 0.000, 10:32:30.159, 1583739150159
141, -29867.41, -34045.04, -23388.95, -18979.09, -24356.38, -23476.30, -26452.71, -26118.84, 0.000, 0.000, 0.000, 10:32:30.159, 1583739150159
142, -29773.21, -34023.24, -23381.82, -18949.29, -24283.27, -23433.88, -26369.29, -26096.15, 0.000, 0.000, 0.000, 10:32:30.159, 1583739150159
143, -29095.44, -33953.10, -23215.10, -18806.20, -23483.66, -23323.87, -26000.11, -25681.08, 0.000, 0.000, 0.000, 10:32:30.159, 1583739150159
144, -28892.67, -33958.31, -23148.09, -18715.79, -23141.61, -23233.36, -25937.43, -25500.01, 0.000, 0.000, 0.000, 10:32:30.159, 1583739150159
145, -29422.58, -34023.67, -23270.11, -18818.07, -23734.40, -23315.39, -26246.24, -25798.09, 0.000, 0.000, 0.000, 10:32:30.159, 1583739150159
146, -29860.34, -34038.84, -23393.13, -18995.18, -24367.47, -23489.36, -26459.50, -26127.62, 0.000, 0.000, 0.000, 10:32:30.159, 1583739150159
147, -29768.34, -34015.46, -23381.38, -18959.06, -24290.27, -23441.90, -26372.91, -26102.79, 0.000, 0.000, 0.000, 10:32:30.160, 1583739150160
148, -29094.19, -33947.38, -23222.93, -18817.58, -23495.75, -23333.30, -26007.24, -25690.80, 0.000, 0.000, 0.000, 10:32:30.160, 1583739150160
149, -28882.61, -33951.89, -23151.02, -18719.54, -23141.34, -23237.39, -25938.84, -25502.40, 0.006, -0.014, 0.964, 10:32:30.160, 1583739150160
150, -29408.05, -34017.50, -23263.18, -18810.65, -23719.98, -23309.58, -26241.10, -25791.03, 0.000, 0.000, 0.000, 10:32:30.160, 1583739150160
151, -29853.03, -34034.82, -23392.60, -18994.82, -24357.86, -23485.74, -26456.17, -26122.62, 0.000, 0.000, 0.000, 10:32:30.160, 1583739150160
152, -29774.89, -34018.80, -23389.22, -18971.98, -24293.35, -23446.49, -26376.73, -26107.33, 0.000, 0.000, 0.000, 10:32:30.160, 1583739150160
153, -29105.95, -33951.94, -23226.93, -18821.29, -23498.72, -23332.29, -26010.95, -25692.59, 0.000, 0.000, 0.000, 10:32:30.160, 1583739150160
154, -28897.92, -33964.05, -23151.87, -18722.65, -23139.80, -23236.13, -25940.29, -25502.60, 0.000, 0.000, 0.000, 10:32:30.160, 1583739150160
155, -29411.92, -34018.73, -23254.33, -18803.94, -23707.71, -23297.00, -26231.54, -25781.19, 0.000, 0.000, 0.000, 10:32:30.160, 1583739150160
156, -29850.84, -34024.65, -23381.44, -18980.12, -24342.37, -23467.70, -26440.82, -26108.76, 0.000, 0.000, 0.000, 10:32:30.160, 1583739150160
157, -29774.71, -34012.89, -23385.71, -18962.57, -24284.59, -23434.73, -26369.07, -26099.68, 0.000, 0.000, 0.000, 10:32:30.161, 1583739150161
158, -29102.75, -33953.08, -23218.34, -18813.46, -23489.00, -23319.78, -26000.26, -25686.22, 0.000, 0.000, 0.000, 10:32:30.161, 1583739150161
159, -28877.56, -33956.05, -23133.52, -18705.57, -23117.56, -23215.79, -25918.48, -25485.08, 0.000, 0.000, 0.000, 10:32:30.161, 1583739150161
160, -29400.63, -34017.86, -23252.18, -18795.22, -23692.65, -23289.49, -26223.31, -25773.26, 0.004, -0.018, 0.970, 10:32:30.161, 1583739150161
161, -29841.92, -34032.14, -23384.26, -18982.13, -24337.38, -23469.38, -26440.46, -26106.55, 0.000, 0.000, 0.000, 10:32:30.161, 1583739150161
162, -29776.12, -34020.16, -23385.91, -18965.83, -24288.37, -23439.13, -26372.08, -26100.85, 0.000, 0.000, 0.000, 10:32:30.161, 1583739150161
163, -29109.97, -33953.55, -23226.19, -18821.93, -23498.92, -23331.55, -26010.19, -25694.04, 0.000, 0.000, 0.000, 10:32:30.161, 1583739150161
164, -28879.55, -33950.98, -23148.38, -18720.28, -23128.56, -23234.93, -25930.08, -25497.01, 0.000, 0.000, 0.000, 10:32:30.161, 1583739150161
165, -29402.96, -34015.09, -23264.61, -18812.66, -23704.00, -23308.67, -26234.91, -25786.74, 0.000, 0.000, 0.000, 10:32:30.161, 1583739150161
166, -29847.85, -34031.07, -23397.49, -18995.88, -24351.55, -23485.22, -26453.06, -26119.55, 0.000, 0.000, 0.000, 10:32:30.162, 1583739150162
167, -29780.03, -34015.42, -23394.18, -18970.28, -24299.59, -23444.81, -26379.28, -26109.25, 0.000, 0.000, 0.000, 10:32:30.162, 1583739150162
168, -29107.42, -33943.71, -23224.85, -18812.05, -23503.17, -23323.73, -26009.58, -25691.29, 0.000, 0.000, 0.000, 10:32:30.162, 1583739150162
169, -28872.22, -33944.74, -23141.19, -18705.79, -23121.43, -23220.98, -25925.72, -25484.97, 0.000, 0.000, 0.000, 10:32:30.162, 1583739150162
170, -29398.51, -34011.35, -23259.02, -18799.63, -23691.06, -23296.13, -26230.80, -25773.44, -0.002, -0.018, 0.970, 10:32:30.162, 1583739150162
171, -29843.13, -34030.57, -23390.47, -18981.64, -24337.79, -23475.28, -26448.53, -26107.89, 0.000, 0.000, 0.000, 10:32:30.162, 1583739150162
172, -29775.74, -34012.20, -23390.90, -18964.45, -24296.17, -23442.13, -26380.69, -26105.14, 0.000, 0.000, 0.000, 10:32:30.162, 1583739150162
173, -29106.51, -33943.18, -23231.11, -18822.67, -23510.68, -23333.12, -26019.15, -25696.77, 0.000, 0.000, 0.000, 10:32:30.163, 1583739150163
174, -28864.91, -33943.34, -23148.52, -18724.57, -23127.01, -23235.40, -25933.03, -25491.07, 0.000, 0.000, 0.000, 10:32:30.163, 1583739150163
175, -29383.47, -34008.29, -23261.41, -18812.99, -23691.66, -23302.72, -26230.53, -25774.78, 0.000, 0.000, 0.000, 10:32:30.163, 1583739150163
176, -29835.38, -34028.05, -23398.03, -18993.55, -24346.17, -23480.69, -26450.74, -26111.55, 0.000, 0.000, 0.000, 10:32:30.163, 1583739150163
177, -29776.19, -34008.45, -23394.70, -18963.02, -24304.53, -23439.07, -26381.92, -26104.98, 0.000, 0.000, 0.000, 10:32:30.163, 1583739150163
178, -29108.94, -33938.39, -23233.70, -18821.82, -23514.24, -23329.32, -26017.59, -25697.55, 0.000, 0.000, 0.000, 10:32:30.163, 1583739150163
179, -28867.72, -33942.26, -23155.74, -18733.60, -23128.11, -23241.39, -25932.61, -25496.41, 0.000, 0.000, 0.000, 10:32:30.163, 1583739150163
180, -29378.80, -34004.56, -23258.64, -18806.31, -23682.54, -23299.55, -26224.09, -25771.47, -0.004, -0.020, 0.970, 10:32:30.164, 1583739150164
181, -29827.93, -34020.43, -23381.13, -18978.22, -24326.72, -23471.83, -26439.03, -26104.31, 0.000, 0.000, 0.000, 10:32:30.164, 1583739150164
182, -29768.43, -34003.46, -23380.53, -18962.84, -24294.76, -23437.75, -26373.58, -26105.27, 0.000, 0.000, 0.000, 10:32:30.164, 1583739150164
183, -29103.33, -33931.46, -23222.97, -18812.28, -23509.47, -23320.65, -26009.18, -25694.54, 0.000, 0.000, 0.000, 10:32:30.164, 1583739150164
184, -28861.29, -33938.17, -23147.40, -18712.37, -23119.53, -23224.58, -25920.78, -25487.58, 0.000, 0.000, 0.000, 10:32:30.164, 1583739150164
185, -29376.99, -34006.14, -23253.90, -18798.62, -23672.33, -23289.78, -26216.34, -25767.49, 0.000, 0.000, 0.000, 10:32:30.164, 1583739150164
186, -29827.06, -34026.35, -23380.91, -18983.16, -24323.01, -23467.74, -26434.20, -26103.62, 0.000, 0.000, 0.000, 10:32:30.165, 1583739150165
187, -29776.30, -34010.21, -23377.91, -18959.04, -24293.42, -23430.48, -26370.41, -26103.44, 0.000, 0.000, 0.000, 10:32:30.165, 1583739150165
188, -29109.39, -33938.71, -23208.96, -18801.55, -23503.13, -23309.83, -26004.18, -25689.44, 0.000, 0.000, 0.000, 10:32:30.165, 1583739150165
189, -28853.82, -33940.05, -23127.17, -18702.24, -23102.81, -23215.04, -25914.21, -25479.13, 0.000, 0.000, 0.000, 10:32:30.165, 1583739150165
190, -29373.19, -34010.17, -23252.09, -18798.73, -23665.80, -23290.38, -26221.77, -25766.22, 0.002, -0.020, 0.970, 10:32:30.165, 1583739150165
191, -29826.55, -34023.60, -23378.29, -18973.37, -24317.56, -23464.59, -26440.68, -26099.77, 0.000, 0.000, 0.000, 10:32:30.165, 1583739150165
192, -29780.08, -34010.19, -23377.62, -18955.78, -24296.23, -23433.77, -26377.43, -26106.63, 0.000, 0.000, 0.000, 10:32:30.165, 1583739150165
193, -29117.35, -33945.06, -23222.72, -18816.95, -23520.61, -23326.66, -26016.36, -25704.39, 0.000, 0.000, 0.000, 10:32:30.166, 1583739150166
194, -28855.70, -33946.22, -23142.97, -18725.82, -23119.15, -23234.68, -25920.89, -25492.14, 0.000, 0.000, 0.000, 10:32:30.166, 1583739150166
195, -29365.50, -34008.34, -23259.27, -18818.29, -23673.87, -23305.25, -26220.18, -25774.00, 0.000, 0.000, 0.000, 10:32:30.166, 1583739150166
196, -29821.58, -34021.50, -23383.08, -18979.63, -24322.83, -23473.13, -26436.93, -26104.58, 0.000, 0.000, 0.000, 10:32:30.166, 1583739150166
197, -29777.42, -34008.98, -23382.29, -18948.82, -24303.52, -23434.93, -26376.22, -26107.48, 0.000, 0.000, 0.000, 10:32:30.166, 1583739150166
198, -29117.39, -33942.62, -23228.40, -18812.23, -23529.37, -23328.43, -26018.97, -25707.23, 0.000, 0.000, 0.000, 10:32:30.166, 1583739150166
199, -28849.44, -33940.36, -23142.12, -18712.30, -23121.78, -23232.34, -25922.64, -25490.06, 0.000, 0.000, 0.000, 10:32:30.166, 1583739150166
200, -29355.75, -34004.67, -23249.19, -18794.62, -23663.72, -23293.02, -26219.47, -25763.54, 0.000, -0.020, 0.966, 10:32:30.166, 1583739150166
201, -29814.59, -34021.23, -23383.77, -18979.51, -24323.03, -23474.27, -26442.54, -26103.93, 0.000, 0.000, 0.000, 10:32:30.166, 1583739150166
202, -29776.75, -34004.51, -23386.43, -18962.57, -24312.86, -23441.95, -26383.71, -26114.19, 0.000, 0.000, 0.000, 10:32:30.166, 1583739150166
203, -29118.76, -33940.30, -23230.53, -18821.38, -23538.24, -23330.59, -26024.07, -25712.24, 0.000, 0.000, 0.000, 10:32:30.166, 1583739150166
204, -28847.52, -33938.04, -23147.31, -18719.45, -23120.46, -23232.20, -25922.19, -25490.46, 0.000, 0.000, 0.000, 10:32:30.167, 1583739150167
205, -29354.70, -34005.47, -23255.22, -18795.22, -23662.85, -23290.07, -26217.63, -25761.19, 0.000, 0.000, 0.000, 10:32:30.167, 1583739150167
206, -29814.19, -34025.59, -23384.08, -18977.26, -24321.20, -23470.38, -26439.07, -26100.36, 0.000, 0.000, 0.000, 10:32:30.167, 1583739150167
207, -29785.96, -34016.87, -23391.72, -18966.13, -24316.84, -23444.83, -26388.60, -26117.59, 0.000, 0.000, 0.000, 10:32:30.167, 1583739150167
208, -29127.14, -33945.79, -23234.06, -18824.97, -23542.29, -23333.16, -26029.77, -25716.60, 0.000, 0.000, 0.000, 10:32:30.167, 1583739150167
209, -28851.00, -33945.06, -23144.31, -18718.67, -23117.20, -23232.58, -25920.00, -25488.97, 0.000, 0.000, 0.000, 10:32:30.167, 1583739150167
210, -29356.13, -34013.05, -23249.21, -18795.18, -23651.74, -23289.98, -26210.84, -25757.10, 0.002, -0.016, 0.974, 10:32:30.167, 1583739150167
211, -29819.13, -34034.73, -23384.55, -18982.42, -24316.60, -23473.24, -26437.26, -26099.28, 0.000, 0.000, 0.000, 10:32:30.167, 1583739150167
212, -29786.58, -34019.60, -23388.73, -18967.96, -24316.82, -23443.04, -26382.77, -26114.59, 0.000, 0.000, 0.000, 10:32:30.167, 1583739150167
213, -29132.53, -33946.69, -23224.54, -18818.65, -23540.74, -23328.45, -26021.83, -25711.70, 0.000, 0.000, 0.000, 10:32:30.167, 1583739150167
214, -28851.83, -33944.97, -23134.52, -18713.64, -23112.57, -23230.37, -25914.41, -25484.38, 0.000, 0.000, 0.000, 10:32:30.168, 1583739150168
215, -29349.94, -34010.75, -23246.08, -18797.39, -23650.00, -23291.59, -26208.80, -25755.60, 0.000, 0.000, 0.000, 10:32:30.168, 1583739150168
216, -29815.82, -34032.25, -23387.17, -18982.91, -24319.23, -23476.57, -26437.96, -26099.39, 0.000, 0.000, 0.000, 10:32:30.168, 1583739150168
217, -29795.19, -34023.04, -23394.32, -18973.97, -24325.22, -23451.16, -26390.28, -26120.76, 0.000, 0.000, 0.000, 10:32:30.168, 1583739150168
218, -29138.16, -33953.44, -23230.05, -18828.04, -23551.23, -23334.21, -26028.11, -25719.64, 0.000, 0.000, 0.000, 10:32:30.168, 1583739150168
219, -28853.11, -33950.64, -23144.56, -18726.38, -23119.44, -23237.25, -25919.10, -25492.39, 0.000, 0.000, 0.000, 10:32:30.168, 1583739150168
220, -29352.51, -34016.16, -23249.48, -18796.19, -23646.89, -23290.09, -26211.33, -25757.84, 0.000, -0.022, 0.976, 10:32:30.168, 1583739150168
221, -29817.43, -34036.09, -23374.38, -18974.78, -24306.67, -23468.53, -26433.26, -26097.36, 0.000, 0.000, 0.000, 10:32:30.168, 1583739150168
222, -29795.34, -34022.06, -23385.67, -18975.67, -24323.99, -23449.75, -26386.37, -26125.10, 0.000, 0.000, 0.000, 10:32:30.168, 1583739150168
223, -29140.30, -33949.71, -23230.23, -18830.27, -23558.56, -23337.68, -26029.10, -25727.13, 0.000, 0.000, 0.000, 10:32:30.168, 1583739150168
224, -28847.59, -33947.79, -23138.79, -18717.95, -23118.36, -23234.93, -25914.23, -25491.74, 0.000, 0.000, 0.000, 10:32:30.169, 1583739150169
225, -29346.10, -34013.21, -23245.48, -18792.54, -23646.78, -23289.49, -26208.16, -25756.96, 0.000, 0.000, 0.000, 10:32:30.169, 1583739150169
226, -29809.49, -34030.29, -23377.06, -18973.41, -24310.70, -23467.56, -26436.73, -26094.41, 0.000, 0.000, 0.000, 10:32:30.169, 1583739150169
227, -29789.80, -34016.09, -23383.21, -18961.43, -24321.49, -23439.74, -26389.16, -26116.20, 0.000, 0.000, 0.000, 10:32:30.169, 1583739150169
228, -29141.38, -33951.85, -23229.41, -18820.44, -23557.71, -23329.81, -26035.00, -25720.80, 0.000, 0.000, 0.000, 10:32:30.169, 1583739150169
229, -28842.82, -33947.80, -23143.71, -18720.72, -23116.78, -23234.39, -25918.88, -25485.26, 0.000, 0.000, 0.000, 10:32:30.169, 1583739150169
230, -29336.57, -34015.93, -23248.29, -18791.92, -23637.30, -23287.63, -26207.33, -25746.19, 0.002, -0.018, 0.970, 10:32:30.170, 1583739150170
231, -29808.24, -34036.43, -23383.95, -18985.24, -24311.68, -23476.91, -26440.26, -26094.43, 0.000, 0.000, 0.000, 10:32:30.170, 1583739150170
232, -29797.45, -34018.50, -23394.97, -18981.26, -24336.71, -23455.74, -26396.16, -26124.20, 0.000, 0.000, 0.000, 10:32:30.170, 1583739150170
233, -29146.76, -33949.41, -23232.09, -18823.34, -23568.04, -23333.01, -26030.86, -25720.91, 0.000, 0.000, 0.000, 10:32:30.170, 1583739150170
234, -28847.81, -33948.23, -23143.67, -18717.30, -23120.24, -23235.46, -25914.59, -25484.21, 0.000, 0.000, 0.000, 10:32:30.170, 1583739150170
235, -29335.41, -34009.23, -23241.97, -18787.11, -23632.77, -23284.91, -26201.12, -25742.30, 0.000, 0.000, 0.000, 10:32:30.170, 1583739150170
236, -29803.17, -34029.21, -23367.41, -18969.54, -24302.98, -23463.05, -26426.53, -26081.62, 0.000, 0.000, 0.000, 10:32:30.170, 1583739150170
237, -29799.84, -34020.54, -23382.40, -18968.49, -24334.81, -23444.43, -26389.50, -26116.16, 0.000, 0.000, 0.000, 10:32:30.170, 1583739150170
238, -29151.44, -33954.33, -23227.75, -18820.88, -23569.76, -23328.27, -26031.76, -25718.70, 0.000, 0.000, 0.000, 10:32:30.170, 1583739150170
239, -28841.26, -33943.02, -23131.37, -18711.29, -23110.27, -23226.75, -25906.72, -25474.95, 0.000, 0.000, 0.000, 10:32:30.171, 1583739150171
240, -29330.76, -34011.35, -23236.11, -18782.10, -23621.95, -23276.26, -26194.48, -25732.98, -0.002, -0.016, 0.974, 10:32:30.171, 1583739150171
241, -29801.02, -34032.77, -23374.80, -18973.81, -24297.40, -23463.90, -26428.08, -26080.93, 0.000, 0.000, 0.000, 10:32:30.634, 1583739150634
242, -29799.54, -34021.34, -23393.69, -18968.90, -24335.24, -23443.47, -26391.08, -26116.67, 0.000, 0.000, 0.000, 10:32:30.634, 1583739150634
243, -29154.03, -33952.61, -23228.09, -18813.44, -23569.15, -23324.04, -26031.31, -25719.46, 0.000, 0.000, 0.000, 10:32:30.635, 1583739150635
244, -28841.64, -33942.38, -23126.95, -18701.28, -23106.36, -23222.17, -25903.73, -25473.75, 0.000, 0.000, 0.000, 10:32:30.635, 1583739150635
245, -29326.18, -34003.84, -23228.96, -18772.16, -23615.49, -23270.33, -26190.19, -25728.18, 0.000, 0.000, 0.000, 10:32:30.635, 1583739150635
246, -29797.33, -34029.66, -23368.21, -18967.85, -24298.16, -23460.12, -26426.89, -26079.70, 0.000, 0.000, 0.000, 10:32:30.635, 1583739150635
247, -29802.90, -34023.29, -23391.12, -18975.22, -24344.09, -23450.64, -26396.34, -26126.04, 0.000, 0.000, 0.000, 10:32:30.635, 1583739150635
248, -29159.12, -33944.05, -23233.41, -18826.54, -23582.77, -23332.74, -26035.24, -25729.74, 0.000, 0.000, 0.000, 10:32:30.635, 1583739150635
249, -28838.20, -33935.82, -23135.93, -18715.27, -23113.96, -23230.75, -25902.90, -25480.14, 0.000, 0.000, 0.000, 10:32:30.635, 1583739150635
250, -29320.37, -34006.97, -23237.81, -18787.58, -23620.45, -23280.77, -26188.98, -25735.78, 0.000, 0.000, 0.000, 10:32:30.636, 1583739150636
251, -29794.56, -34025.86, -23370.85, -18970.35, -24296.21, -23462.67, -26420.63, -26081.29, -0.004, -0.016, 0.980, 10:32:30.636, 1583739150636
252, -29802.79, -34014.19, -23393.98, -18976.36, -24346.90, -23450.22, -26390.50, -26126.97, 0.000, 0.000, 0.000, 10:32:30.640, 1583739150640
253, -29158.95, -33948.54, -23245.14, -18837.36, -23596.78, -23341.57, -26040.81, -25738.73, 0.000, 0.000, 0.000, 10:32:30.640, 1583739150640
254, -28834.96, -33939.63, -23142.26, -18720.30, -23121.45, -23237.14, -25908.89, -25484.43, 0.000, 0.000, 0.000, 10:32:30.640, 1583739150640
255, -29316.66, -34004.22, -23238.77, -18777.83, -23614.75, -23274.65, -26192.09, -25731.24, 0.000, 0.000, 0.000, 10:32:30.641, 1583739150641
0, -29795.61, -34027.02, -23374.52, -18964.87, -24296.50, -23458.45, -26427.79, -26077.53, 0.000, 0.000, 0.000, 10:32:30.641, 1583739150641
1, -29805.22, -34018.19, -23388.57, -18967.18, -24349.03, -23442.44, -26394.57, -26121.07, 0.000, 0.000, 0.000, 10:32:30.641, 1583739150641
2, -29168.82, -33950.76, -23234.01, -18825.96, -23595.84, -23331.67, -26042.73, -25734.93, 0.000, 0.000, 0.000, 10:32:30.641, 1583739150641
3, -28832.43, -33931.38, -23134.08, -18713.97, -23118.05, -23228.67, -25904.55, -25477.19, 0.000, 0.000, 0.000, 10:32:30.641, 1583739150641
4, -29312.14, -33998.59, -23232.16, -18776.52, -23611.60, -23270.60, -26189.02, -25724.44, 0.000, 0.000, 0.000, 10:32:30.642, 1583739150642
5, -29792.79, -34025.70, -23367.38, -18966.28, -24293.33, -23457.60, -26426.49, -26073.24, -0.002, -0.016, 0.978, 10:32:30.642, 1583739150642
6, -29805.40, -34015.93, -23383.66, -18972.99, -24350.71, -23444.65, -26397.92, -26121.66, 0.000, 0.000, 0.000, 10:32:30.642, 1583739150642
7, -29174.52, -33951.54, -23234.41, -18833.71, -23602.14, -23334.39, -26047.13, -25737.68, 0.000, 0.000, 0.000, 10:32:30.642, 1583739150642
8, -28836.74, -33939.00, -23128.56, -18716.10, -23111.72, -23226.63, -25899.57, -25475.96, 0.000, 0.000, 0.000, 10:32:30.642, 1583739150642
9, -29311.09, -34009.39, -23220.69, -18769.29, -23596.11, -23262.24, -26178.21, -25719.41, 0.000, 0.000, 0.000, 10:32:30.643, 1583739150643
10, -29791.90, -34032.96, -23361.46, -18960.52, -24283.13, -23453.04, -26418.24, -26072.86, 0.000, 0.000, 0.000, 10:32:30.643, 1583739150643
11, -29814.07, -34028.88, -23390.27, -18977.23, -24355.26, -23449.26, -26399.40, -26130.26, 0.000, 0.000, 0.000, 10:32:30.643, 1583739150643
12, -29179.44, -33958.65, -23237.95, -18831.77, -23609.83, -23335.60, -26045.19, -25742.55, 0.000, 0.000, 0.000, 10:32:30.643, 1583739150643
13, -28841.82, -33946.04, -23132.11, -18718.00, -23117.02, -23234.68, -25901.36, -25484.50, 0.000, 0.000, 0.000, 10:32:30.643, 1583739150643
14, -29306.31, -34006.10, -23220.04, -18768.33, -23594.63, -23266.15, -26175.90, -25721.38, 0.000, 0.000, 0.000, 10:32:30.644, 1583739150644
15, -29788.46, -34028.79, -23361.15, -18958.95, -24282.53, -23453.75, -26415.69, -26073.24, 0.002, -0.020, 0.974, 10:32:30.644, 1583739150644
16, -29819.26, -34023.29, -23391.30, -18976.12, -24359.40, -23451.38, -26397.79, -26134.06, 0.000, 0.000, 0.000, 10:32:30.644, 1583739150644
17, -29183.49, -33952.63, -23237.01, -18828.35, -23610.19, -23334.15, -26042.53, -25744.34, 0.000, 0.000, 0.000, 10:32:30.644, 1583739150644
18, -28835.81, -33940.92, -23134.08, -18710.22, -23113.33, -23228.80, -25896.10, -25477.19, 0.000, 0.000, 0.000, 10:32:30.644, 1583739150644
19, -29307.38, -34009.95, -23232.65, -18776.00, -23596.87, -23269.08, -26178.79, -25721.31, 0.000, 0.000, 0.000, 10:32:30.644, 1583739150644
20, -29788.97, -34030.02, -23364.10, -18963.60, -24279.45, -23452.10, -26413.97, -26068.59, 0.000, 0.000, 0.000, 10:32:30.645, 1583739150645
21, -29817.63, -34023.64, -23383.70, -18970.62, -24352.20, -23444.65, -26390.95, -26126.24, 0.000, 0.000, 0.000, 10:32:30.645, 1583739150645
22, -29187.71, -33959.94, -23232.71, -18831.03, -23609.10, -23334.57, -26040.99, -25745.68, 0.000, 0.000, 0.000, 10:32:30.645, 1583739150645
23, -28835.13, -33940.88, -23127.06, -18717.51, -23107.70, -23230.35, -25890.94, -25475.38, 0.000, 0.000, 0.000, 10:32:30.645, 1583739150645
24, -29298.02, -34000.98, -23226.19, -18774.26, -23582.21, -23264.90, -26169.22, -25711.70, 0.000, 0.000, 0.000, 10:32:30.645, 1583739150645
25, -29782.94, -34026.71, -23371.14, -18968.79, -24279.58, -23457.46, -26414.55, -26068.48, 0.000, -0.016, 0.972, 10:32:30.645, 1583739150645
26, -29812.73, -34018.84, -23397.00, -18977.61, -24362.37, -23451.18, -26398.79, -26129.90, 0.000, 0.000, 0.000, 10:32:30.645, 1583739150645
27, -29184.43, -33951.65, -23240.81, -18830.38, -23620.34, -23334.13, -26048.65, -25746.46, 0.000, 0.000, 0.000, 10:32:30.646, 1583739150646
28, -28830.89, -33937.70, -23135.82, -18715.83, -23118.77, -23230.97, -25898.16, -25478.02, 0.000, 0.000, 0.000, 10:32:30.646, 1583739150646
29, -29294.87, -34001.23, -23229.92, -18771.44, -23587.84, -23263.27, -26172.64, -25712.35, 0.000, 0.000, 0.000, 10:32:30.646, 1583739150646
30, -29784.17, -34027.76, -23368.23, -18965.19, -24276.54, -23453.10, -26413.86, -26065.53, 0.000, 0.000, 0.000, 10:32:30.646, 1583739150646
31, -29824.24, -34027.02, -23397.83, -18981.30, -24365.66, -23452.03, -26400.45, -26132.16, 0.000, 0.000, 0.000, 10:32:30.646, 1583739150646
32, -29196.41, -33954.45, -23249.30, -18844.33, -23630.84, -23342.73, -26053.57, -25754.37, 0.000, 0.000, 0.000, 10:32:30.646, 1583739150646
33, -28835.25, -33936.00, -23141.70, -18730.25, -23119.73, -23243.78, -25903.17, -25486.82, 0.000, 0.000, 0.000, 10:32:30.646, 1583739150646
34, -29293.53, -34005.79, -23230.55, -18780.58, -23585.34, -23276.19, -26182.03, -25722.34, 0.000, 0.000, 0.000, 10:32:30.646, 1583739150646
35, -29783.70, -34033.35, -23368.17, -18965.97, -24275.04, -23460.19, -26424.50, -26073.44, 0.000, -0.018, 0.970, 10:32:30.647, 1583739150647
36, -29820.49, -34021.61, -23396.93, -18981.93, -24364.99, -23454.42, -26408.43, -26137.62, 0.000, 0.000, 0.000, 10:32:30.647, 1583739150647
37, -29198.22, -33954.73, -23250.44, -18844.29, -23633.91, -23343.65, -26063.56, -25762.04, 0.000, 0.000, 0.000, 10:32:30.647, 1583739150647
38, -28833.39, -33939.80, -23146.30, -18732.10, -23123.08, -23242.95, -25907.37, -25488.45, 0.000, 0.000, 0.000, 10:32:30.647, 1583739150647
39, -29291.38, -34008.82, -23236.92, -18776.74, -23585.13, -23268.50, -26179.61, -25716.17, 0.000, 0.000, 0.000, 10:32:30.647, 1583739150647
40, -29782.65, -34033.32, -23372.03, -18960.27, -24278.73, -23453.44, -26422.40, -26068.75, 0.000, 0.000, 0.000, 10:32:30.647, 1583739150647
41, -29828.27, -34026.71, -23397.78, -18976.09, -24376.72, -23451.92, -26416.34, -26138.38, 0.000, 0.000, 0.000, 10:32:30.647, 1583739150647
42, -29206.78, -33956.28, -23248.96, -18837.74, -23645.78, -23340.67, -26072.95, -25763.85, 0.000, 0.000, 0.000, 10:32:30.647, 1583739150647
43, -28838.38, -33941.50, -23139.46, -18723.63, -23121.07, -23238.24, -25910.43, -25487.00, 0.000, 0.000, 0.000, 10:32:30.648, 1583739150648
44, -29287.62, -34007.46, -23230.37, -18775.84, -23576.53, -23268.59, -26180.93, -25715.21, 0.000, 0.000, 0.000, 10:32:30.648, 1583739150648
45, -29783.07, -34031.40, -23380.59, -18978.89, -24283.43, -23468.75, -26434.49, -26078.36, -0.002, -0.022, 0.972, 10:32:30.648, 1583739150648
46, -29831.02, -34023.20, -23411.48, -18993.77, -24389.22, -23468.08, -26427.65, -26151.56, 0.000, 0.000, 0.000, 10:32:30.648, 1583739150648
47, -29207.85, -33954.13, -23253.79, -18839.86, -23655.34, -23345.48, -26073.46, -25770.35, 0.000, 0.000, 0.000, 10:32:30.648, 1583739150648
48, -28835.36, -33940.21, -23144.25, -18718.40, -23125.87, -23243.38, -25909.94, -25491.29, 0.000, 0.000, 0.000, 10:32:30.648, 1583739150648
49, -29283.04, -34005.92, -23231.22, -18769.47, -23575.32, -23271.45, -26179.81, -25716.08, 0.000, 0.000, 0.000, 10:32:30.648, 1583739150648
50, -29777.08, -34034.15, -23368.41, -18966.66, -24273.28, -23461.26, -26424.05, -26071.48, 0.000, 0.000, 0.000, 10:32:30.648, 1583739150648
51, -29830.71, -34026.33, -23402.90, -18985.73, -24383.29, -23461.96, -26419.25, -26144.48, 0.000, 0.000, 0.000, 10:32:30.649, 1583739150649
52, -29216.99, -33957.04, -23258.62, -18844.49, -23660.46, -23350.67, -26076.95, -25772.86, 0.000, 0.000, 0.000, 10:32:30.649, 1583739150649
53, -28837.53, -33943.63, -23151.91, -18733.13, -23132.13, -23254.80, -25916.31, -25496.41, 0.000, 0.000, 0.000, 10:32:30.649, 1583739150649
54, -29277.95, -34004.71, -23244.94, -18789.17, -23580.13, -23284.95, -26185.36, -25721.76, 0.000, 0.000, 0.000, 10:32:30.649, 1583739150649
55, -29772.90, -34032.12, -23378.49, -18975.54, -24271.91, -23466.51, -26425.19, -26072.17, -0.002, -0.022, 0.978, 10:32:30.649, 1583739150649
56, -29835.02, -34030.64, -23395.95, -18982.73, -24375.72, -23457.39, -26411.65, -26141.01, 0.000, 0.000, 0.000, 10:32:30.649, 1583739150649
57, -29222.65, -33962.22, -23246.30, -18843.46, -23653.17, -23344.81, -26066.74, -25772.41, 0.000, 0.000, 0.000, 10:32:30.650, 1583739150650
58, -28834.22, -33943.52, -23139.91, -18730.31, -23119.10, -23244.63, -25898.72, -25491.78, 0.000, 0.000, 0.000, 10:32:30.650, 1583739150650
59, -29279.42, -34010.91, -23227.13, -18777.23, -23560.79, -23270.11, -26166.54, -25714.25, 0.000, 0.000, 0.000, 10:32:30.650, 1583739150650
60, -29773.91, -34031.47, -23360.19, -18957.70, -24253.72, -23451.49, -26410.02, -26064.17, 0.000, 0.000, 0.000, 10:32:30.650, 1583739150650
61, -29832.96, -34023.29, -23391.59, -18975.76, -24371.87, -23451.03, -26405.14, -26139.67, 0.000, 0.000, 0.000, 10:32:30.650, 1583739150650
62, -29223.88, -33960.17, -23246.39, -18839.41, -23654.69, -23341.28, -26063.92, -25773.06, 0.000, 0.000, 0.000, 10:32:30.650, 1583739150650
63, -28828.03, -33937.23, -23125.61, -18715.05, -23106.58, -23232.22, -25886.20, -25480.61, 0.000, 0.000, 0.000, 10:32:30.650, 1583739150650
64, -29267.80, -34002.75, -23208.80, -18759.80, -23541.24, -23251.87, -26148.70, -25696.10, 0.000, 0.000, 0.000, 10:32:30.650, 1583739150650
65, -29766.15, -34032.30, -23352.97, -18958.14, -24247.19, -23441.06, -26399.02, -26054.80, 0.002, -0.018, 0.974, 10:32:30.651, 1583739150651
66, -29831.51, -34026.53, -23389.45, -18984.39, -24375.89, -23448.25, -26400.79, -26138.35, 0.000, 0.000, 0.000, 10:32:30.651, 1583739150651
67, -29225.26, -33960.03, -23249.86, -18844.26, -23664.51, -23337.16, -26064.59, -25771.36, 0.000, 0.000, 0.000, 10:32:30.651, 1583739150651
68, -28829.84, -33941.48, -23140.47, -18729.62, -23119.30, -23235.33, -25895.88, -25483.16, 0.000, 0.000, 0.000, 10:32:30.651, 1583739150651
69, -29263.86, -34002.75, -23220.96, -18768.85, -23550.38, -23253.10, -26158.78, -25696.41, 0.000, 0.000, 0.000, 10:32:30.651, 1583739150651
70, -29761.41, -34025.14, -23358.44, -18949.34, -24249.85, -23434.08, -26406.17, -26047.78, 0.000, 0.000, 0.000, 10:32:30.652, 1583739150652
71, -29830.77, -34015.60, -23392.75, -18970.62, -24380.75, -23440.45, -26410.46, -26134.49, 0.000, 0.000, 0.000, 10:32:30.652, 1583739150652
72, -29226.67, -33949.30, -23248.00, -18835.57, -23668.11, -23331.20, -26070.36, -25770.96, 0.000, 0.000, 0.000, 10:32:30.652, 1583739150652
73, -28827.54, -33933.39, -23130.97, -18717.44, -23113.63, -23230.14, -25891.57, -25478.24, 0.000, 0.000, 0.000, 10:32:30.652, 1583739150652
74, -29262.39, -34000.71, -23213.04, -18759.86, -23540.10, -23253.46, -26153.84, -25693.53, 0.000, 0.000, 0.000, 10:32:30.652, 1583739150652
75, -29763.07, -34030.69, -23354.17, -18953.32, -24244.04, -23444.21, -26403.71, -26052.14, 0.000, -0.018, 0.972, 10:32:30.652, 1583739150652
76, -29836.70, -34023.40, -23387.03, -18977.53, -24379.63, -23450.71, -26407.47, -26139.07, 0.000, 0.000, 0.000, 10:32:30.653, 1583739150653
77, -29235.07, -33958.20, -23248.74, -18843.28, -23673.58, -23342.17, -26071.99, -25778.29, 0.000, 0.000, 0.000, 10:32:30.653, 1583739150653
78, -28827.09, -33936.94, -23135.60, -18728.32, -23117.31, -23242.04, -25892.44, -25484.47, 0.000, 0.000, 0.000, 10:32:30.653, 1583739150653
79, -29255.91, -34002.48, -23219.68, -18774.79, -23540.48, -23263.72, -26154.24, -25696.57, 0.000, 0.000, 0.000, 10:32:30.653, 1583739150653
80, -29758.24, -34027.69, -23356.54, -18960.58, -24242.75, -23448.01, -26403.85, -26051.22, 0.000, 0.000, 0.000, 10:32:30.653, 1583739150653
81, -29836.22, -34017.36, -23392.51, -18983.13, -24382.96, -23455.56, -26409.63, -26140.68, 0.000, 0.000, 0.000, 10:32:30.653, 1583739150653
82, -29234.74, -33950.42, -23246.73, -18839.66, -23673.22, -23340.74, -26068.79, -25776.30, 0.000, 0.000, 0.000, 10:32:30.653, 1583739150653
83, -28823.67, -33930.21, -23132.65, -18721.08, -23112.80, -23237.19, -25887.03, -25477.43, 0.000, 0.000, 0.000, 10:32:30.654, 1583739150654
84, -29248.38, -33993.36, -23219.39, -18761.29, -23530.11, -23254.71, -26147.49, -25685.78, 0.000, 0.000, 0.000, 10:32:30.654, 1583739150654
85, -29753.48, -34016.31, -23359.07, -18950.52, -24233.67, -23443.20, -26401.05, -26045.64, 0.000, 0.000, 0.000, 10:32:30.654, 1583739150654
86, -29837.32, -34015.64, -23400.11, -18980.99, -24383.09, -23453.60, -26411.42, -26140.19, 0.000, -0.014, 0.966, 10:32:30.654, 1583739150654
87, -29243.48, -33955.00, -23259.00, -18844.78, -23683.13, -23341.86, -26074.47, -25779.85, 0.000, 0.000, 0.000, 10:32:30.654, 1583739150654
88, -28828.01, -33933.95, -23140.29, -18722.29, -23117.22, -23236.85, -25888.95, -25478.37, 0.000, 0.000, 0.000, 10:32:30.655, 1583739150655
89, -29251.86, -34000.38, -23220.73, -18766.03, -23530.40, -23255.63, -26149.77, -25687.79, 0.000, 0.000, 0.000, 10:32:30.655, 1583739150655
90, -29757.28, -34026.11, -23359.14, -18957.83, -24238.90, -23443.45, -26403.82, -26046.98, 0.000, 0.000, 0.000, 10:32:30.655, 1583739150655
91, -29839.40, -34019.31, -23397.52, -18979.45, -24389.48, -23449.10, -26413.19, -26138.42, 0.000, 0.000, 0.000, 10:32:30.655, 1583739150655
92, -29249.13, -33960.84, -23259.20, -18841.02, -23692.38, -23338.28, -26079.77, -25782.33, 0.000, 0.000, 0.000, 10:32:30.655, 1583739150655
93, -28827.29, -33935.31, -23133.85, -18712.12, -23113.80, -23229.97, -25887.92, -25474.77, 0.000, 0.000, 0.000, 10:32:30.655, 1583739150655
94, -29245.71, -33999.04, -23215.35, -18751.04, -23519.94, -23246.51, -26147.96, -25679.29, 0.000, 0.000, 0.000, 10:32:30.656, 1583739150656
95, -29749.23, -34024.05, -23356.59, -18945.88, -24227.99, -23436.94, -26404.54, -26041.10, 0.000, 0.000, 0.000, 10:32:30.656, 1583739150656
96, -29838.97, -34017.70, -23400.24, -18982.46, -24391.97, -23454.76, -26421.35, -26142.94, 0.000, -0.008, 0.964, 10:32:30.656, 1583739150656
97, -29251.10, -33959.94, -23262.60, -18850.34, -23701.65, -23345.55, -26089.58, -25790.38, 0.000, 0.000, 0.000, 10:32:30.656, 1583739150656
98, -28826.69, -33939.04, -23138.39, -18732.68, -23121.13, -23242.39, -25892.95, -25486.20, 0.000, 0.000, 0.000, 10:32:30.656, 1583739150656
99, -29241.49, -33997.52, -23217.87, -18769.23, -23518.35, -23254.49, -26144.92, -25685.93, 0.000, 0.000, 0.000, 10:32:30.656, 1583739150656
100, -29748.40, -34025.03, -23357.64, -18955.66, -24223.86, -23438.46, -26396.43, -26043.16, 0.000, 0.000, 0.000, 10:32:30.656, 1583739150656
101, -29841.37, -34022.86, -23393.76, -18981.95, -24384.39, -23446.02, -26407.54, -26140.50, 0.000, 0.000, 0.000, 10:32:30.657, 1583739150657
102, -29252.08, -33958.80, -23251.92, -18846.23, -23693.54, -23334.53, -26073.40, -25787.10, 0.000, 0.000, 0.000, 10:32:30.657, 1583739150657
103, -28827.96, -33938.78, -23140.47, -18737.78, -23118.77, -23241.77, -25886.43, -25485.93, 0.000, 0.000, 0.000, 10:32:30.657, 1583739150657
104, -29239.41, -34000.96, -23219.01, -18766.43, -23511.33, -23251.16, -26139.07, -25679.76, 0.000, 0.000, 0.000, 10:32:30.657, 1583739150657
105, -29743.69, -34019.73, -23346.84, -18941.38, -24213.53, -23427.00, -26387.55, -26028.43, 0.000, 0.000, 0.000, 10:32:31.116, 1583739151116
106, -29843.24, -34014.50, -23387.52, -18974.64, -24383.54, -23441.73, -26405.79, -26130.53, 0.002, -0.010, 0.970, 10:32:31.116, 1583739151116
107, -29256.33, -33948.36, -23249.46, -18842.43, -23695.78, -23332.18, -26073.62, -25779.36, 0.000, 0.000, 0.000, 10:32:31.116, 1583739151116
108, -28820.47, -33924.16, -23133.85, -18719.63, -23112.24, -23228.80, -25879.34, -25469.68, 0.000, 0.000, 0.000, 10:32:31.117, 1583739151117
109, -29229.51, -33985.13, -23214.21, -18752.06, -23508.11, -23239.38, -26133.59, -25664.36, 0.000, 0.000, 0.000, 10:32:31.117, 1583739151117
110, -29743.02, -34013.86, -23350.17, -18941.34, -24216.68, -23426.28, -26390.39, -26023.20, 0.000, 0.000, 0.000, 10:32:31.117, 1583739151117
111, -29842.42, -34013.68, -23392.69, -18981.14, -24389.35, -23444.70, -26410.11, -26129.46, 0.000, 0.000, 0.000, 10:32:31.117, 1583739151117
112, -29257.56, -33944.30, -23251.63, -18841.74, -23701.99, -23330.08, -26078.54, -25774.82, 0.000, 0.000, 0.000, 10:32:31.117, 1583739151117
113, -28819.64, -33914.46, -23125.92, -18713.91, -23107.32, -23225.50, -25876.61, -25463.02, 0.000, 0.000, 0.000, 10:32:31.117, 1583739151117
114, -29224.59, -33986.45, -23205.33, -18752.55, -23492.93, -23239.78, -26127.36, -25660.49, 0.000, 0.000, 0.000, 10:32:31.118, 1583739151118
115, -29738.97, -34021.90, -23343.74, -18948.62, -24209.04, -23432.16, -26386.55, -26027.80, 0.000, 0.000, 0.000, 10:32:31.118, 1583739151118
116, -29843.00, -34020.67, -23388.91, -18987.49, -24390.98, -23451.23, -26409.30, -26138.44, 0.004, -0.016, 0.974, 10:32:31.118, 1583739151118
117, -29265.12, -33960.30, -23257.03, -18853.07, -23711.67, -23343.00, -26085.00, -25793.60, 0.000, 0.000, 0.000, 10:32:31.118, 1583739151118
118, -28820.96, -33929.10, -23136.22, -18733.58, -23117.20, -23242.21, -25883.14, -25480.27, 0.000, 0.000, 0.000, 10:32:31.118, 1583739151118
119, -29223.54, -33991.50, -23208.20, -18761.81, -23497.09, -23247.33, -26130.96, -25669.55, 0.000, 0.000, 0.000, 10:32:31.118, 1583739151118
120, -29736.13, -34014.62, -23346.35, -18944.67, -24209.60, -23429.66, -26387.82, -26027.58, 0.000, 0.000, 0.000, 10:32:31.118, 1583739151118
121, -29849.93, -34015.75, -23391.79, -18987.34, -24396.19, -23454.33, -26414.26, -26143.96, 0.000, 0.000, 0.000, 10:32:31.119, 1583739151119
122, -29276.27, -33957.04, -23256.07, -18848.94, -23717.46, -23342.75, -26086.47, -25798.07, 0.000, 0.000, 0.000, 10:32:31.121, 1583739151121
123, -28825.97, -33925.01, -23133.14, -18724.32, -23115.08, -23236.72, -25880.68, -25478.73, 0.000, 0.000, 0.000, 10:32:31.121, 1583739151121
124, -29222.54, -33991.44, -23206.16, -18754.61, -23486.25, -23243.91, -26127.98, -25666.31, 0.000, 0.000, 0.000, 10:32:31.122, 1583739151122
125, -29733.99, -34015.31, -23343.29, -18941.25, -24195.47, -23429.39, -26385.09, -26025.10, 0.000, 0.000, 0.000, 10:32:31.122, 1583739151122
126, -29847.56, -34009.09, -23389.63, -18986.38, -24385.80, -23453.04, -26410.64, -26140.39, 0.004, -0.020, 0.976, 10:32:31.122, 1583739151122
127, -29276.96, -33956.39, -23255.02, -18853.74, -23713.28, -23342.46, -26085.71, -25798.49, 0.000, 0.000, 0.000, 10:32:31.122, 1583739151122
128, -28823.47, -33931.60, -23127.55, -18722.94, -23105.58, -23232.60, -25875.41, -25474.48, 0.000, 0.000, 0.000, 10:32:31.122, 1583739151122
129, -29216.90, -33992.24, -23194.00, -18739.77, -23473.91, -23229.54, -26114.68, -25653.41, 0.000, 0.000, 0.000, 10:32:31.122, 1583739151122
130, -29731.66, -34017.92, -23333.81, -18927.75, -24187.09, -23414.70, -26373.07, -26012.78, 0.000, 0.000, 0.000, 10:32:31.122, 1583739151122
131, -29852.94, -34015.80, -23392.15, -18985.59, -24393.96, -23449.55, -26412.83, -26138.91, 0.000, 0.000, 0.000, 10:32:31.122, 1583739151122
132, -29282.48, -33952.12, -23263.81, -18856.65, -23732.10, -23342.80, -26091.93, -25801.11, 0.000, 0.000, 0.000, 10:32:31.123, 1583739151123
133, -28818.66, -33921.21, -23139.64, -18726.04, -23119.79, -23235.84, -25879.16, -25476.56, 0.000, 0.000, 0.000, 10:32:31.123, 1583739151123
134, -29205.23, -33983.30, -23207.05, -18747.05, -23479.23, -23236.11, -26119.89, -25655.38, 0.000, 0.000, 0.000, 10:32:31.123, 1583739151123
135, -29722.37, -34012.34, -23342.19, -18933.25, -24192.54, -23420.60, -26377.49, -26015.33, 0.000, 0.000, 0.000, 10:32:31.123, 1583739151123
136, -29844.43, -34011.35, -23389.02, -18980.25, -24393.78, -23448.86, -26408.14, -26137.50, 0.000, -0.016, 0.966, 10:32:31.123, 1583739151123
137, -29283.71, -33953.50, -23259.27, -18849.02, -23731.43, -23340.99, -26088.26, -25799.63, 0.000, 0.000, 0.000, 10:32:31.123, 1583739151123
138, -28819.80, -33925.14, -23129.74, -18729.91, -23115.79, -23238.86, -25873.78, -25476.43, 0.000, 0.000, 0.000, 10:32:31.123, 1583739151123
139, -29207.18, -33993.20, -23202.70, -18756.18, -23474.23, -23242.91, -26117.95, -25657.66, 0.000, 0.000, 0.000, 10:32:31.124, 1583739151124
140, -29729.92, -34018.28, -23339.56, -18937.22, -24190.22, -23426.95, -26381.63, -26018.35, 0.000, 0.000, 0.000, 10:32:31.124, 1583739151124
141, -29855.09, -34023.69, -23390.14, -18983.92, -24395.32, -23455.83, -26415.98, -26143.90, 0.000, 0.000, 0.000, 10:32:31.124, 1583739151124
142, -29287.69, -33964.95, -23253.48, -18852.24, -23731.12, -23346.55, -26090.32, -25808.78, 0.000, 0.000, 0.000, 10:32:31.124, 1583739151124
143, -28822.66, -33935.89, -23126.21, -18726.56, -23112.37, -23242.84, -25875.03, -25483.96, 0.000, 0.000, 0.000, 10:32:31.124, 1583739151124
144, -29206.60, -33995.68, -23201.11, -18751.39, -23466.07, -23244.83, -26116.54, -25661.99, 0.000, 0.000, 0.000, 10:32:31.124, 1583739151124
145, -29730.90, -34027.94, -23350.24, -18948.71, -24192.63, -23439.00, -26385.14, -26030.88, 0.000, 0.000, 0.000, 10:32:31.125, 1583739151125
146, -29854.64, -34025.25, -23400.82, -18995.92, -24406.00, -23467.28, -26418.87, -26155.25, -0.004, -0.020, 0.972, 10:32:31.125, 1583739151125
147, -29294.06, -33966.65, -23265.64, -18857.50, -23747.79, -23353.53, -26097.38, -25817.76, 0.000, 0.000, 0.000, 10:32:31.125, 1583739151125
148, -28822.60, -33936.56, -23123.48, -18721.57, -23115.14, -23240.14, -25870.47, -25481.30, 0.000, 0.000, 0.000, 10:32:31.125, 1583739151125
149, -29208.83, -34004.40, -23194.45, -18745.96, -23462.04, -23238.71, -26109.74, -25653.65, 0.000, 0.000, 0.000, 10:32:31.125, 1583739151125
150, -29731.89, -34032.90, -23340.92, -18941.96, -24181.32, -23426.46, -26376.42, -26015.89, 0.000, 0.000, 0.000, 10:32:31.125, 1583739151125
151, -29862.09, -34032.00, -23395.73, -18989.51, -24399.70, -23457.57, -26416.54, -26146.27, 0.000, 0.000, 0.000, 10:32:31.125, 1583739151125
152, -29304.90, -33974.61, -23273.80, -18860.31, -23751.88, -23353.06, -26103.80, -25819.44, 0.000, 0.000, 0.000, 10:32:31.126, 1583739151126
153, -28822.62, -33933.88, -23140.13, -18724.55, -23120.62, -23241.16, -25878.47, -25480.74, 0.000, 0.000, 0.000, 10:32:31.126, 1583739151126
154, -29193.32, -33993.07, -23195.32, -18738.99, -23454.51, -23231.78, -26108.94, -25645.47, 0.000, 0.000, 0.000, 10:32:31.126, 1583739151126
155, -29718.63, -34023.98, -23333.39, -18931.12, -24170.62, -23417.77, -26375.93, -26009.76, 0.000, 0.000, 0.000, 10:32:31.126, 1583739151126
156, -29860.34, -34025.70, -23394.68, -18988.05, -24398.43, -23454.67, -26424.03, -26145.88, -0.006, -0.024, 0.976, 10:32:31.126, 1583739151126
157, -29304.16, -33963.36, -23263.18, -18850.14, -23750.07, -23340.05, -26104.65, -25810.52, 0.000, 0.000, 0.000, 10:32:31.126, 1583739151126
158, -28822.71, -33929.48, -23133.45, -18722.29, -23119.73, -23235.22, -25881.96, -25476.45, 0.000, 0.000, 0.000, 10:32:31.126, 1583739151126
159, -29192.92, -33990.70, -23205.85, -18746.92, -23459.18, -23235.51, -26118.26, -25647.04, 0.000, 0.000, 0.000, 10:32:31.126, 1583739151126
160, -29723.66, -34027.09, -23356.90, -18944.58, -24187.29, -23430.60, -26389.79, -26018.70, 0.000, 0.000, 0.000, 10:32:31.127, 1583739151127
161, -29862.62, -34029.39, -23411.53, -19001.80, -24417.07, -23467.52, -26429.78, -26155.83, 0.000, 0.000, 0.000, 10:32:31.127, 1583739151127
162, -29310.94, -33971.72, -23279.25, -18868.94, -23768.71, -23358.73, -26113.30, -25828.15, 0.000, 0.000, 0.000, 10:32:31.127, 1583739151127
163, -28822.64, -33934.80, -23140.22, -18730.25, -23127.48, -23246.30, -25883.92, -25485.97, 0.000, 0.000, 0.000, 10:32:31.127, 1583739151127
164, -29187.98, -33996.27, -23202.14, -18747.39, -23453.66, -23240.20, -26115.04, -25649.59, 0.000, 0.000, 0.000, 10:32:31.127, 1583739151127
165, -29718.23, -34027.94, -23351.58, -18948.60, -24181.39, -23437.70, -26388.07, -26021.16, 0.000, 0.000, 0.000, 10:32:31.127, 1583739151127
166, -29863.54, -34024.47, -23407.77, -19011.43, -24416.31, -23479.46, -26433.06, -26161.75, 0.000, -0.022, 0.980, 10:32:31.127, 1583739151127
167, -29311.94, -33966.83, -23272.77, -18867.78, -23768.11, -23360.05, -26113.41, -25829.05, 0.000, 0.000, 0.000, 10:32:31.127, 1583739151127
168, -28827.65, -33935.25, -23144.89, -18732.46, -23129.79, -23252.09, -25885.91, -25490.64, 0.000, 0.000, 0.000, 10:32:31.128, 1583739151128
169, -29189.01, -33994.59, -23206.68, -18749.56, -23452.03, -23243.29, -26111.44, -25650.46, 0.000, 0.000, 0.000, 10:32:31.128, 1583739151128
170, -29715.46, -34025.88, -23343.96, -18942.86, -24171.91, -23429.86, -26376.69, -26014.52, 0.000, 0.000, 0.000, 10:32:31.129, 1583739151129
171, -29862.91, -34030.89, -23402.70, -18993.15, -24410.23, -23464.39, -26423.36, -26152.32, 0.000, 0.000, 0.000, 10:32:31.129, 1583739151129
172, -29313.91, -33964.52, -23269.35, -18848.82, -23764.82, -23343.94, -26103.28, -25818.99, 0.000, 0.000, 0.000, 10:32:31.130, 1583739151130
173, -28818.17, -33930.95, -23127.91, -18719.70, -23117.78, -23236.09, -25866.20, -25476.56, 0.000, 0.000, 0.000, 10:32:31.130, 1583739151130
174, -29177.16, -33994.14, -23187.45, -18734.27, -23433.41, -23226.30, -26096.49, -25635.37, 0.000, 0.000, 0.000, 10:32:31.130, 1583739151130
175, -29708.19, -34025.63, -23334.88, -18926.88, -24155.62, -23413.81, -26369.45, -26002.19, 0.000, 0.000, 0.000, 10:32:31.130, 1583739151130
176, -29858.15, -34023.31, -23392.17, -18985.71, -24402.11, -23452.54, -26418.20, -26143.25, 0.000, 0.000, 0.000, 10:32:31.130, 1583739151130
177, -29318.42, -33964.50, -23267.43, -18859.24, -23769.54, -23345.21, -26108.94, -25823.13, 0.000, -0.022, 0.978, 10:32:31.130, 1583739151130
178, -28819.47, -33929.75, -23134.50, -18729.17, -23119.57, -23237.97, -25870.22, -25478.39, 0.000, 0.000, 0.000, 10:32:31.131, 1583739151131
179, -29171.75, -33990.81, -23191.63, -18734.07, -23428.74, -23221.18, -26092.44, -25629.81, 0.000, 0.000, 0.000, 10:32:31.131, 1583739151131
180, -29706.83, -34023.62, -23335.82, -18925.45, -24155.73, -23409.61, -26365.31, -25998.14, 0.000, 0.000, 0.000, 10:32:31.131, 1583739151131
181, -29863.54, -34023.45, -23394.99, -18989.39, -24406.74, -23453.06, -26415.42, -26143.36, 0.000, 0.000, 0.000, 10:32:31.131, 1583739151131
182, -29321.33, -33963.70, -23262.15, -18854.57, -23771.24, -23339.62, -26101.03, -25818.41, 0.000, 0.000, 0.000, 10:32:31.131, 1583739151131
183, -28815.94, -33923.24, -23120.26, -18717.37, -23111.26, -23227.33, -25860.16, -25467.04, 0.000, 0.000, 0.000, 10:32:31.131, 1583739151131
184, -29170.23, -33989.47, -23184.14, -18735.90, -23419.80, -23219.53, -26087.41, -25623.64, 0.000, 0.000, 0.000, 10:32:31.131, 1583739151131
185, -29705.96, -34026.53, -23328.96, -18927.81, -24146.28, -23408.67, -26360.10, -25993.51, 0.000, 0.000, 0.000, 10:32:31.131, 1583739151131
186, -29859.70, -34022.95, -23393.00, -18988.70, -24403.54, -23451.47, -26415.04, -26139.78, 0.000, 0.000, 0.000, 10:32:31.132, 1583739151132
187, -29325.71, -33960.86, -23271.21, -18860.87, -23780.60, -23343.63, -26109.23, -25823.51, -0.002, -0.018, 0.976, 10:32:31.132, 1583739151132
188, -28821.25, -33924.67, -23139.89, -18738.27, -23127.64, -23243.18, -25872.12, -25480.47, 0.000, 0.000, 0.000, 10:32:31.132, 1583739151132
189, -29168.89, -33991.23, -23199.97, -18752.02, -23431.27, -23232.98, -26095.86, -25633.22, 0.000, 0.000, 0.000, 10:32:31.132, 1583739151132
190, -29700.79, -34020.85, -23336.47, -18930.81, -24150.79, -23412.87, -26363.61, -25995.50, 0.000, 0.000, 0.000, 10:32:31.132, 1583739151132
191, -29858.29, -34017.16, -23391.68, -18983.16, -24404.77, -23450.18, -26413.57, -26140.12, 0.000, 0.000, 0.000, 10:32:31.132, 1583739151132
192, -29329.20, -33962.27, -23269.73, -18858.21, -23786.23, -23344.29, -26111.42, -25828.09, 0.000, 0.000, 0.000, 10:32:31.132, 1583739151132
193, -28821.70, -33929.66, -23136.76, -18736.88, -23129.16, -23246.35, -25876.77, -25486.04, 0.000, 0.000, 0.000, 10:32:31.132, 1583739151132
194, -29162.23, -33985.76, -23198.23, -18743.14, -23425.79, -23230.88, -26097.43, -25631.79, 0.000, 0.000, 0.000, 10:32:31.133, 1583739151133
195, -29695.43, -34017.36, -23338.93, -18923.90, -24148.31, -23411.89, -26369.89, -25993.76, 0.000, 0.000, 0.000, 10:32:31.133, 1583739151133
196, -29864.99, -34023.38, -23405.49, -18996.95, -24419.01, -23462.65, -26431.63, -26151.56, 0.000, 0.000, 0.000, 10:32:31.133, 1583739151133
197, -29339.99, -33964.30, -23285.02, -18873.37, -23804.14, -23356.66, -26125.48, -25841.77, 0.000, -0.016, 0.968, 10:32:31.133, 1583739151133
198, -28826.84, -33931.33, -23137.27, -18732.64, -23129.79, -23243.87, -25875.18, -25486.69, 0.000, 0.000, 0.000, 10:32:31.133, 1583739151133
199, -29167.06, -33991.68, -23193.31, -18739.32, -23415.62, -23228.42, -26091.71, -25630.16, 0.000, 0.000, 0.000, 10:32:31.133, 1583739151133
200, -29704.35, -34023.91, -23337.57, -18928.17, -24141.11, -23413.81, -26366.81, -25996.89, 0.000, 0.000, 0.000, 10:32:31.133, 1583739151133
201, -29868.59, -34024.94, -23394.25, -18992.75, -24407.37, -23458.42, -26421.26, -26150.13, 0.000, 0.000, 0.000, 10:32:31.134, 1583739151134
202, -29345.98, -33966.92, -23269.73, -18870.77, -23794.19, -23353.17, -26118.53, -25844.74, 0.000, 0.000, 0.000, 10:32:31.134, 1583739151134
203, -28827.74, -33932.20, -23126.50, -18737.60, -23121.94, -23245.57, -25868.63, -25490.69, 0.000, 0.000, 0.000, 10:32:31.134, 1583739151134
204, -29163.42, -33997.98, -23190.27, -18744.55, -23409.41, -23229.92, -26089.09, -25631.33, 0.000, 0.000, 0.000, 10:32:31.134, 1583739151134
205, -29700.35, -34030.15, -23333.48, -18929.22, -24133.71, -23412.87, -26365.27, -25996.91, 0.000, 0.000, 0.000, 10:32:31.134, 1583739151134
206, -29869.26, -34026.53, -23391.66, -18995.14, -24404.13, -23458.74, -26423.40, -26153.48, 0.000, 0.000, 0.000, 10:32:31.134, 1583739151134
207, -29349.49, -33966.40, -23274.96, -18870.84, -23800.92, -23352.70, -26127.89, -25846.37, 0.006, -0.018, 0.970, 10:32:31.135, 1583739151135
208, -28830.82, -33930.48, -23136.38, -18740.08, -23131.46, -23247.67, -25882.11, -25491.45, 0.000, 0.000, 0.000, 10:32:31.135, 1583739151135
209, -29157.25, -33995.48, -23190.07, -18743.37, -23406.72, -23228.36, -26095.28, -25626.63, 0.000, 0.000, 0.000, 10:32:31.135, 1583739151135
210, -29693.33, -34021.97, -23331.64, -18923.01, -24133.69, -23409.12, -26371.84, -25990.47, 0.000, 0.000, 0.000, 10:32:31.135, 1583739151135
211, -29874.80, -34016.98, -23393.47, -18982.29, -24413.87, -23453.48, -26434.16, -26146.20, 0.000, 0.000, 0.000, 10:32:31.135, 1583739151135
212, -29361.54, -33970.34, -23275.25, -18862.41, -23812.03, -23347.34, -26134.80, -25841.81, 0.000, 0.000, 0.000, 10:32:31.135, 1583739151135
213, -28827.74, -33931.49, -23131.80, -18730.92, -23131.28, -23238.19, -25877.93, -25480.63, 0.000, 0.000, 0.000, 10:32:31.135, 1583739151135
214, -29152.51, -33996.64, -23190.65, -18735.81, -23408.00, -23221.09, -26090.95, -25616.46, 0.000, 0.000, 0.000, 10:32:31.135, 1583739151135
215, -29692.99, -34034.84, -23334.59, -18920.13, -24137.78, -23407.06, -26368.96, -25985.22, 0.000, 0.000, 0.000, 10:32:31.136, 1583739151136
216, -29873.42, -34030.13, -23397.94, -18991.12, -24422.77, -23459.96, -26431.63, -26148.90, 0.000, 0.000, 0.000, 10:32:31.136, 1583739151136
217, -29362.75, -33968.53, -23284.26, -18873.54, -23826.89, -23356.43, -26135.07, -25850.19, 0.004, -0.018, 0.968, 10:32:31.136, 1583739151136
218, -28832.45, -33928.32, -23140.11, -18739.59, -23141.77, -23247.04, -25880.70, -25490.80, 0.000, 0.000, 0.000, 10:32:31.136, 1583739151136
219, -29149.27, -33994.48, -23188.91, -18734.90, -23400.87, -23221.67, -26087.97, -25618.47, 0.000, 0.000, 0.000, 10:32:31.136, 1583739151136
220, -29688.64, -34033.08, -23333.16, -18923.81, -24132.53, -23409.85, -26366.81, -25987.41, 0.000, 0.000, 0.000, 10:32:31.137, 1583739151137
221, -29871.79, -34035.54, -23401.47, -19001.26, -24428.04, -23468.12, -26435.88, -26156.03, 0.000, 0.000, 0.000, 10:32:31.137, 1583739151137
222, -29360.63, -33974.20, -23279.54, -18870.48, -23826.89, -23355.09, -26137.17, -25851.85, 0.000, 0.000, 0.000, 10:32:31.137, 1583739151137
223, -28825.57, -33927.96, -23132.96, -18733.82, -23132.76, -23245.05, -25875.32, -25485.95, 0.000, 0.000, 0.000, 10:32:31.137, 1583739151137
224, -29144.75, -33996.33, -23187.61, -18745.18, -23396.15, -23227.91, -26083.19, -25619.55, 0.000, 0.000, 0.000, 10:32:31.137, 1583739151137
225, -29689.38, -34034.75, -23339.29, -18933.63, -24130.56, -23414.72, -26362.96, -25990.76, 0.000, 0.000, 0.000, 10:32:31.597, 1583739151597
226, -29876.93, -34038.33, -23404.06, -19004.55, -24421.49, -23469.98, -26430.47, -26159.38, 0.000, 0.000, 0.000, 10:32:31.597, 1583739151597
227, -29373.21, -33975.52, -23280.26, -18874.53, -23828.97, -23359.36, -26135.78, -25860.65, 0.006, -0.022, 0.968, 10:32:31.597, 1583739151597
228, -28834.44, -33932.16, -23131.66, -18732.97, -23137.03, -23246.46, -25874.45, -25491.76, 0.000, 0.000, 0.000, 10:32:31.598, 1583739151598
229, -29146.63, -33996.71, -23184.39, -18737.15, -23394.72, -23227.20, -26085.29, -25620.66, 0.000, 0.000, 0.000, 10:32:31.598, 1583739151598
230, -29682.27, -34026.02, -23333.88, -18921.87, -24128.17, -23409.79, -26365.00, -25987.12, 0.000, 0.000, 0.000, 10:32:31.598, 1583739151598
231, -29875.52, -34027.04, -23401.40, -18996.79, -24425.76, -23466.80, -26434.04, -26156.35, 0.000, 0.000, 0.000, 10:32:31.598, 1583739151598
232, -29373.83, -33971.21, -23287.77, -18873.37, -23845.89, -23360.50, -26145.33, -25862.11, 0.000, 0.000, 0.000, 10:32:31.598, 1583739151598
233, -28832.23, -33931.24, -23151.85, -18745.13, -23159.51, -23255.92, -25886.92, -25499.18, 0.000, 0.000, 0.000, 10:32:31.598, 1583739151598
234, -29130.67, -33982.74, -23191.37, -18729.85, -23395.79, -23220.87, -26080.17, -25610.67, 0.000, 0.000, 0.000, 10:32:31.598, 1583739151598
235, -29675.25, -34017.27, -23336.16, -18916.50, -24125.94, -23406.34, -26362.74, -25980.91, 0.000, 0.000, 0.000, 10:32:31.599, 1583739151599
236, -29869.22, -34016.52, -23404.49, -18999.76, -24432.62, -23467.30, -26435.72, -26154.76, 0.000, 0.000, 0.000, 10:32:31.599, 1583739151599
237, -29371.09, -33964.86, -23284.21, -18871.94, -23847.23, -23356.57, -26141.39, -25857.55, 0.008, -0.024, 0.968, 10:32:31.602, 1583739151602
238, -28828.36, -33926.46, -23142.91, -18742.18, -23152.45, -23251.51, -25878.87, -25491.63, 0.000, 0.000, 0.000, 10:32:31.602, 1583739151602
239, -29131.32, -33983.75, -23191.14, -18743.93, -23395.50, -23227.51, -26080.73, -25613.67, 0.000, 0.000, 0.000, 10:32:31.602, 1583739151602
240, -29673.59, -34015.89, -23329.68, -18924.46, -24121.15, -23406.05, -26356.93, -25979.14, 0.000, 0.000, 0.000, 10:32:31.603, 1583739151603
241, -29872.99, -34023.20, -23405.09, -19000.35, -24431.62, -23467.48, -26434.54, -26155.23, 0.000, 0.000, 0.000, 10:32:31.603, 1583739151603
242, -29377.77, -33966.11, -23293.29, -18876.43, -23853.71, -23360.39, -26146.20, -25863.36, 0.000, 0.000, 0.000, 10:32:31.603, 1583739151603
243, -28828.52, -33922.62, -23154.75, -18751.12, -23158.28, -23259.27, -25882.80, -25499.29, 0.000, 0.000, 0.000, 10:32:31.603, 1583739151603
244, -29121.24, -33980.64, -23193.58, -18740.30, -23386.92, -23225.61, -26076.51, -25612.06, 0.000, 0.000, 0.000, 10:32:31.603, 1583739151603
245, -29672.28, -34021.21, -23336.38, -18922.20, -24117.38, -23406.28, -26358.14, -25979.59, 0.000, 0.000, 0.000, 10:32:31.603, 1583739151603
246, -29876.66, -34023.62, -23413.34, -19011.30, -24438.53, -23476.04, -26438.07, -26161.69, 0.000, 0.000, 0.000, 10:32:31.604, 1583739151604
247, -29385.41, -33966.69, -23298.81, -18882.89, -23866.68, -23367.07, -26152.03, -25872.50, 0.006, -0.026, 0.974, 10:32:31.604, 1583739151604
248, -28833.15, -33928.70, -23149.32, -18745.51, -23163.02, -23258.49, -25884.30, -25501.17, 0.000, 0.000, 0.000, 10:32:31.604, 1583739151604
249, -29123.41, -33983.23, -23192.64, -18737.40, -23390.79, -23228.33, -26081.04, -25612.68, 0.000, 0.000, 0.000, 10:32:31.604, 1583739151604
250, -29674.62, -34024.05, -23342.37, -18925.45, -24123.34, -23412.94, -26367.21, -25983.46, 0.000, 0.000, 0.000, 10:32:31.604, 1583739151604
251, -29883.43, -34032.61, -23414.95, -19004.77, -24443.00, -23474.16, -26446.45, -26162.18, 0.000, 0.000, 0.000, 10:32:31.605, 1583739151605
252, -29401.86, -33980.51, -23291.17, -18874.44, -23866.79, -23361.57, -26156.03, -25873.75, 0.000, 0.000, 0.000, 10:32:31.605, 1583739151605
253, -28842.82, -33934.84, -23137.61, -18734.92, -23153.46, -23250.44, -25881.31, -25496.46, 0.000, 0.000, 0.000, 10:32:31.605, 1583739151605
254, -29126.63, -33991.79, -23190.52, -18734.79, -23384.08, -23226.43, -26081.04, -25610.38, 0.000, 0.000, 0.000, 10:32:31.605, 1583739151605
255, -29671.40, -34025.95, -23338.42, -18923.90, -24117.69, -23412.04, -26367.03, -25981.89, 0.000, 0.000, 0.000, 10:32:31.605, 1583739151605
0, -29878.60, -34028.43, -23411.93, -19008.26, -24443.44, -23478.41, -26445.82, -26164.44, 0.000, 0.000, 0.000, 10:32:31.606, 1583739151606
1, -29394.24, -33973.84, -23296.08, -18875.69, -23880.83, -23365.28, -26158.63, -25877.11, 0.006, -0.022, 0.974, 10:32:31.606, 1583739151606
2, -28833.44, -33927.58, -23146.97, -18736.30, -23168.63, -23256.12, -25884.53, -25501.15, 0.000, 0.000, 0.000, 10:32:31.606, 1583739151606
3, -29117.73, -33986.03, -23185.15, -18728.62, -23383.37, -23223.89, -26075.79, -25607.37, 0.000, 0.000, 0.000, 10:32:31.606, 1583739151606
4, -29663.92, -34021.95, -23322.66, -18910.71, -24106.02, -23400.31, -26354.18, -25969.84, 0.000, 0.000, 0.000, 10:32:31.607, 1583739151607
5, -29874.87, -34025.48, -23397.38, -18996.41, -24433.14, -23465.24, -26431.79, -26151.34, 0.000, 0.000, 0.000, 10:32:31.607, 1583739151607
6, -29401.04, -33970.54, -23289.89, -18877.63, -23874.72, -23359.74, -26151.41, -25870.45, 0.000, 0.000, 0.000, 10:32:31.607, 1583739151607
7, -28837.68, -33922.95, -23142.79, -18741.24, -23158.11, -23252.16, -25876.79, -25493.44, 0.000, 0.000, 0.000, 10:32:31.607, 1583739151607
8, -29112.21, -33983.28, -23181.73, -18723.70, -23364.63, -23215.13, -26062.27, -25594.29, 0.000, 0.000, 0.000, 10:32:31.607, 1583739151607
9, -29661.84, -34023.31, -23327.84, -18910.22, -24093.55, -23397.18, -26347.32, -25963.09, 0.000, 0.000, 0.000, 10:32:31.608, 1583739151608
10, -29870.11, -34022.53, -23397.31, -18990.09, -24420.64, -23459.23, -26425.97, -26142.76, 0.000, 0.000, 0.000, 10:32:31.608, 1583739151608
11, -29394.46, -33962.45, -23283.54, -18860.16, -23864.29, -23347.27, -26143.70, -25858.71, 0.000, 0.000, 0.000, 10:32:31.608, 1583739151608
12, -28830.38, -33921.27, -23135.17, -18723.63, -23148.31, -23238.62, -25870.71, -25480.34, 0.006, -0.020, 0.974, 10:32:31.608, 1583739151608
13, -29107.69, -33977.36, -23180.30, -18717.02, -23358.49, -23205.92, -26062.56, -25582.67, 0.000, 0.000, 0.000, 10:32:31.608, 1583739151608
14, -29662.15, -34017.68, -23327.51, -18904.99, -24094.11, -23389.58, -26352.46, -25955.47, 0.000, 0.000, 0.000, 10:32:31.609, 1583739151609
15, -29877.84, -34022.24, -23393.96, -18990.06, -24426.03, -23456.61, -26432.68, -26143.14, 0.000, 0.000, 0.000, 10:32:31.609, 1583739151609
16, -29406.11, -33966.54, -23284.84, -18873.19, -23876.04, -23352.74, -26150.82, -25869.01, 0.000, 0.000, 0.000, 10:32:31.609, 1583739151609
17, -28837.86, -33921.99, -23134.48, -18730.56, -23153.81, -23241.88, -25869.39, -25488.41, 0.000, 0.000, 0.000, 10:32:31.609, 1583739151609
18, -29107.54, -33983.05, -23175.83, -18719.83, -23353.15, -23209.40, -26057.95, -25588.48, 0.000, 0.000, 0.000, 10:32:31.609, 1583739151609
19, -29656.47, -34020.61, -23323.84, -18905.60, -24085.05, -23391.70, -26345.93, -25957.39, 0.000, 0.000, 0.000, 10:32:31.610, 1583739151610
20, -29879.01, -34021.77, -23391.23, -18988.41, -24421.27, -23458.02, -26427.67, -26144.95, 0.000, 0.000, 0.000, 10:32:31.610, 1583739151610
21, -29414.72, -33971.61, -23279.03, -18864.94, -23876.80, -23347.56, -26148.14, -25869.44, 0.000, 0.000, 0.000, 10:32:31.610, 1583739151610
22, -28838.94, -33925.95, -23131.06, -18728.30, -23151.45, -23237.88, -25866.53, -25486.24, 0.006, -0.022, 0.966, 10:32:31.610, 1583739151610
23, -29101.05, -33983.19, -23169.30, -18714.76, -23339.51, -23201.38, -26048.21, -25579.36, 0.000, 0.000, 0.000, 10:32:31.610, 1583739151610
24, -29652.31, -34020.16, -23306.05, -18895.76, -24062.97, -23378.56, -26331.61, -25945.99, 0.000, 0.000, 0.000, 10:32:31.611, 1583739151611
25, -29880.53, -34023.96, -23386.94, -18993.44, -24413.33, -23458.51, -26424.05, -26146.04, 0.000, 0.000, 0.000, 10:32:31.611, 1583739151611
26, -29422.72, -33977.31, -23285.09, -18880.34, -23879.48, -23358.27, -26156.12, -25881.75, 0.000, 0.000, 0.000, 10:32:31.611, 1583739151611
27, -28847.12, -33930.71, -23138.95, -18746.41, -23157.61, -23250.78, -25876.48, -25499.18, 0.000, 0.000, 0.000, 10:32:31.611, 1583739151611
28, -29102.89, -33982.81, -23177.10, -18730.22, -23343.87, -23212.22, -26057.71, -25588.03, 0.000, 0.000, 0.000, 10:32:31.611, 1583739151611
29, -29654.84, -34023.20, -23319.48, -18904.88, -24072.85, -23388.13, -26345.38, -25953.97, 0.000, 0.000, 0.000, 10:32:31.612, 1583739151612
30, -29878.71, -34023.78, -23390.14, -18992.19, -24420.55, -23459.14, -26431.34, -26145.48, 0.000, 0.000, 0.000, 10:32:31.612, 1583739151612
31, -29423.86, -33975.63, -23288.62, -18879.11, -23891.82, -23359.05, -26163.72, -25881.96, 0.000, 0.000, 0.000, 10:32:31.612, 1583739151612
32, -28845.51, -33924.00, -23141.21, -18745.98, -23166.00, -23253.46, -25882.74, -25498.62, 0.006, -0.020, 0.970, 10:32:31.612, 1583739151612
33, -29096.43, -33974.89, -23178.47, -18726.27, -23347.38, -23211.91, -26058.40, -25583.16, 0.000, 0.000, 0.000, 10:32:31.612, 1583739151612
34, -29656.23, -34021.32, -23330.77, -18903.74, -24083.56, -23391.41, -26351.30, -25953.59, 0.000, 0.000, 0.000, 10:32:31.612, 1583739151612
35, -29884.82, -34025.10, -23413.05, -18995.07, -24438.48, -23465.82, -26443.70, -26149.95, 0.000, 0.000, 0.000, 10:32:31.613, 1583739151613
36, -29422.70, -33963.96, -23303.48, -18876.47, -23906.84, -23357.62, -26170.56, -25882.34, 0.000, 0.000, 0.000, 10:32:31.613, 1583739151613
37, -28833.23, -33912.00, -23140.34, -18734.25, -23168.28, -23244.05, -25876.21, -25491.13, 0.000, 0.000, 0.000, 10:32:31.613, 1583739151613
38, -29086.41, -33969.82, -23168.39, -18711.40, -23336.65, -23199.81, -26046.51, -25571.67, 0.000, 0.000, 0.000, 10:32:31.613, 1583739151613
39, -29642.39, -34012.85, -23312.29, -18886.82, -24061.65, -23373.87, -26332.54, -25934.21, 0.000, 0.000, 0.000, 10:32:31.614, 1583739151614
40, -29875.61, -34020.18, -23389.63, -18984.05, -24421.09, -23452.43, -26425.17, -26133.12, 0.000, 0.000, 0.000, 10:32:31.614, 1583739151614
41, -29424.77, -33970.23, -23286.36, -18875.22, -23899.27, -23352.34, -26157.91, -25874.87, 0.000, 0.000, 0.000, 10:32:31.615, 1583739151615
42, -28836.72, -33909.99, -23137.56, -18737.65, -23167.85, -23245.90, -25869.55, -25489.97, 0.006, -0.016, 0.974, 10:32:31.615, 1583739151615
43, -29077.25, -33960.34, -23173.66, -18720.90, -23338.15, -23206.07, -26044.61, -25572.54, 0.000, 0.000, 0.000, 10:32:31.616, 1583739151616
44, -29633.52, -34005.54, -23314.30, -18897.73, -24064.69, -23383.54, -26335.25, -25940.94, 0.000, 0.000, 0.000, 10:32:31.616, 1583739151616
45, -29867.23, -34006.88, -23393.25, -18991.18, -24426.25, -23460.97, -26426.20, -26140.03, 0.000, 0.000, 0.000, 10:32:31.616, 1583739151616
46, -29422.29, -33963.16, -23286.87, -18875.73, -23901.66, -23353.97, -26154.36, -25878.45, 0.000, 0.000, 0.000, 10:32:31.616, 1583739151616
47, -28837.57, -33918.04, -23130.17, -18735.32, -23159.85, -23243.18, -25859.27, -25489.41, 0.000, 0.000, 0.000, 10:32:31.617, 1583739151617
48, -29073.49, -33968.48, -23155.51, -18711.47, -23315.44, -23196.84, -26023.67, -25564.40, 0.000, 0.000, 0.000, 10:32:31.617, 1583739151617
49, -29633.21, -34010.41, -23302.97, -18893.13, -24047.64, -23376.66, -26317.10, -25935.33, 0.000, 0.000, 0.000, 10:32:31.617, 1583739151617
50, -29878.16, -34015.64, -23391.23, -18996.79, -24417.92, -23461.75, -26418.87, -26143.05, 0.000, 0.000, 0.000, 10:32:31.617, 1583739151617
51, -29435.82, -33970.02, -23289.22, -18882.80, -23903.18, -23356.83, -26156.17, -25886.58, 0.000, 0.000, 0.000, 10:32:31.617, 1583739151617
52, -28842.53, -33919.64, -23127.48, -18729.33, -23158.53, -23240.14, -25860.23, -25489.64, -0.002, -0.018, 0.970, 10:32:31.618, 1583739151618
53, -29076.73, -33969.26, -23157.14, -18702.35, -23309.56, -23194.49, -26028.74, -25562.71, 0.000, 0.000, 0.000, 10:32:31.618, 1583739151618
54, -29640.40, -34017.32, -23315.21, -18894.60, -24051.17, -23380.75, -26332.72, -25939.40, 0.000, 0.000, 0.000, 10:32:31.618, 1583739151618
55, -29875.94, -34015.04, -23388.33, -18983.34, -24421.83, -23454.11, -26426.44, -26137.15, 0.000, 0.000, 0.000, 10:32:31.618, 1583739151618
56, -29435.59, -33961.55, -23285.26, -18870.62, -23912.81, -23348.50, -26163.10, -25881.87, 0.000, 0.000, 0.000, 10:32:31.619, 1583739151619
57, -28840.39, -33909.59, -23136.42, -18732.13, -23172.05, -23238.41, -25868.95, -25488.97, 0.000, 0.000, 0.000, 10:32:31.619, 1583739151619
58, -29065.29, -33957.20, -23167.00, -18703.16, -23320.51, -23189.62, -26034.55, -25555.80, 0.000, 0.000, 0.000, 10:32:31.619, 1583739151619
59, -29620.73, -33997.65, -23309.40, -18884.14, -24047.84, -23367.21, -26326.96, -25923.55, 0.000, 0.000, 0.000, 10:32:31.619, 1583739151619
60, -29867.32, -34006.77, -23393.76, -18980.47, -24424.78, -23449.53, -26429.75, -26131.47, 0.000, 0.000, 0.000, 10:32:31.619, 1583739151619
61, -29434.59, -33956.59, -23296.13, -18864.83, -23921.17, -23344.43, -26169.67, -25878.71, 0.000, 0.000, 0.000, 10:32:31.620, 1583739151620
62, -28837.75, -33905.18, -23142.97, -18731.05, -23178.89, -23238.21, -25871.92, -25486.31, 0.004, -0.018, 0.974, 10:32:31.620, 1583739151620
63, -29059.84, -33956.79, -23170.73, -18712.01, -23319.22, -23194.87, -26033.23, -25554.82, 0.000, 0.000, 0.000, 10:32:31.620, 1583739151620
64, -29617.13, -34001.74, -23313.72, -18891.83, -24046.27, -23372.08, -26325.77, -25922.41, 0.000, 0.000, 0.000, 10:32:31.620, 1583739151620
65, -29864.95, -34006.41, -23397.07, -18993.55, -24426.03, -23458.36, -26425.71, -26132.12, 0.000, 0.000, 0.000, 10:32:31.621, 1583739151621
66, -29437.85, -33958.13, -23299.99, -18882.62, -23923.76, -23356.07, -26166.49, -25884.57, 0.000, 0.000, 0.000, 10:32:31.621, 1583739151621
67, -28838.82, -33905.20, -23135.11, -18734.03, -23166.00, -23239.80, -25860.34, -25484.45, 0.000, 0.000, 0.000, 10:32:31.621, 1583739151621
68, -29063.10, -33962.96, -23159.94, -18711.70, -23301.96, -23195.39, -26019.02, -25552.36, 0.000, 0.000, 0.000, 10:32:31.621, 1583739151621
69, -29618.97, -34003.73, -23301.51, -18886.04, -24024.71, -23368.70, -26308.83, -25916.42, 0.000, 0.000, 0.000, 10:32:31.621, 1583739151621
70, -29868.86, -34004.58, -23382.43, -18988.61, -24405.33, -23454.36, -26409.99, -26125.05, 0.000, 0.000, 0.000, 10:32:31.622, 1583739151622
71, -29448.11, -33959.47, -23289.60, -18877.88, -23912.10, -23349.64, -26155.81, -25880.50, 0.000, 0.000, 0.000, 10:32:31.622, 1583739151622
72, -28843.79, -33906.86, -23127.73, -18728.66, -23158.40, -23231.69, -25852.32, -25479.71, 0.006, -0.018, 0.976, 10:32:31.622, 1583739151622
73, -29058.18, -33960.39, -23153.48, -18703.20, -23289.58, -23184.82, -26014.12, -25543.33, 0.000, 0.000, 0.000, 10:32:31.622, 1583739151622
74, -29623.82, -34012.00, -23302.05, -18885.12, -24025.38, -23363.36, -26313.17, -25915.15, 0.000, 0.000, 0.000, 10:32:31.622, 1583739151622
75, -29875.72, -34012.16, -23385.53, -18985.19, -24413.65, -23449.35, -26414.62, -26125.81, 0.000, 0.000, 0.000, 10:32:31.622, 1583739151622
76, -29458.32, -33966.65, -23288.19, -18866.82, -23923.03, -23344.56, -26161.20, -25882.47, 0.000, 0.000, 0.000, 10:32:31.622, 1583739151622
77, -28850.85, -33915.53, -23124.35, -18720.61, -23163.76, -23229.05, -25854.91, -25482.20, 0.000, 0.000, 0.000, 10:32:31.623, 1583739151623
78, -29058.21, -33965.84, -23151.42, -18701.03, -23286.09, -23183.25, -26010.72, -25543.57, 0.000, 0.000, 0.000, 10:32:31.623, 1583739151623
79, -29620.35, -34009.16, -23296.02, -18886.64, -24014.62, -23364.21, -26306.71, -25916.62, 0.000, 0.000, 0.000, 10:32:31.623, 1583739151623
80, -29876.84, -34016.83, -23378.11, -18986.38, -24405.22, -23451.70, -26412.65, -26133.68, 0.000, 0.000, 0.000, 10:32:31.623, 1583739151623
81, -29463.64, -33969.51, -23287.41, -18872.38, -23925.87, -23349.44, -26163.99, -25896.60, 0.000, 0.000, 0.000, 10:32:31.623, 1583739151623
82, -28852.01, -33912.67, -23133.32, -18734.07, -23170.06, -23241.34, -25857.39, -25498.73, 0.000, -0.018, 0.966, 10:32:31.623, 1583739151623
83, -29054.36, -33962.71, -23154.37, -18702.84, -23288.95, -23190.58, -26009.79, -25554.39, 0.000, 0.000, 0.000, 10:32:31.623, 1583739151623
84, -29615.32, -34010.41, -23300.62, -18881.21, -24021.44, -23367.00, -26309.70, -25923.44, 0.000, 0.000, 0.000, 10:32:31.624, 1583739151624
85, -29874.45, -34018.48, -23391.26, -18991.16, -24422.50, -23463.16, -26420.19, -26143.54, 0.000, 0.000, 0.000, 10:32:31.624, 1583739151624
86, -29465.72, -33973.69, -23298.00, -18882.26, -23946.65, -23362.00, -26170.88, -25906.45, 0.000, 0.000, 0.000, 10:32:31.624, 1583739151624
87, -28852.30, -33911.46, -23138.88, -18739.08, -23180.70, -23247.85, -25862.02, -25501.02, 0.000, 0.000, 0.000, 10:32:31.624, 1583739151624
88, -29048.15, -33962.29, -23162.02, -18711.94, -23287.48, -23197.06, -26011.19, -25551.48, 0.000, 0.000, 0.000, 10:32:31.624, 1583739151624
89, -29610.72, -34012.02, -23303.30, -18876.92, -24012.23, -23362.87, -26305.14, -25912.20, 0.000, 0.000, 0.000, 10:32:31.624, 1583739151624
90, -29871.79, -34014.26, -23386.85, -18979.69, -24411.48, -23451.25, -26412.74, -26126.44, 0.000, 0.000, 0.000, 10:32:32.077, 1583739152077
91, -29464.61, -33963.54, -23292.84, -18869.83, -23937.58, -23347.80, -26166.92, -25888.79, 0.000, 0.000, 0.000, 10:32:32.078, 1583739152078
92, -28848.99, -33908.85, -23135.60, -18727.56, -23177.91, -23236.83, -25861.41, -25486.44, 0.000, -0.016, 0.966, 10:32:32.078, 1583739152078
93, -29047.19, -33963.79, -23165.41, -18703.07, -23290.49, -23189.51, -26016.16, -25539.86, 0.000, 0.000, 0.000, 10:32:32.078, 1583739152078
94, -29607.37, -34007.82, -23307.46, -18876.74, -24017.15, -23359.74, -26311.06, -25903.68, 0.000, 0.000, 0.000, 10:32:32.078, 1583739152078
95, -29874.13, -34012.27, -23384.95, -18981.64, -24419.21, -23450.53, -26417.88, -26122.13, 0.000, 0.000, 0.000, 10:32:32.079, 1583739152079
96, -29475.56, -33968.79, -23293.54, -18871.31, -23949.83, -23349.06, -26175.26, -25890.92, 0.000, 0.000, 0.000, 10:32:32.079, 1583739152079
97, -28855.97, -33920.05, -23139.38, -18729.08, -23184.10, -23238.95, -25866.47, -25486.64, 0.000, 0.000, 0.000, 10:32:32.079, 1583739152079
98, -29042.58, -33973.06, -23165.59, -18705.10, -23284.10, -23190.83, -26012.09, -25534.54, 0.000, 0.000, 0.000, 10:32:32.079, 1583739152079
99, -29612.08, -34024.88, -23303.82, -18883.47, -24006.91, -23365.22, -26311.85, -25903.82, 0.000, 0.000, 0.000, 10:32:32.079, 1583739152079
100, -29881.38, -34030.20, -23390.18, -18991.40, -24412.62, -23461.46, -26424.43, -26128.50, 0.000, 0.000, 0.000, 10:32:32.080, 1583739152080
101, -29480.07, -33974.98, -23292.19, -18874.06, -23944.13, -23352.90, -26174.99, -25895.01, 0.000, 0.000, 0.000, 10:32:32.087, 1583739152087
102, -28860.79, -33922.55, -23122.81, -18728.66, -23170.85, -23238.19, -25858.38, -25489.75, 0.002, -0.018, 0.970, 10:32:32.087, 1583739152087
103, -29044.62, -33979.66, -23145.05, -18708.48, -23266.96, -23191.88, -26004.22, -25539.53, 0.000, 0.000, 0.000, 10:32:32.088, 1583739152088
104, -29611.95, -34028.94, -23295.26, -18890.71, -23998.75, -23368.39, -26306.64, -25912.06, 0.000, 0.000, 0.000, 10:32:32.088, 1583739152088
105, -29885.42, -34034.98, -23384.89, -18998.38, -24414.43, -23463.77, -26421.13, -26138.60, 0.000, 0.000, 0.000, 10:32:32.088, 1583739152088
106, -29492.39, -33988.08, -23294.45, -18889.79, -23954.05, -23361.13, -26175.81, -25912.40, 0.000, 0.000, 0.000, 10:32:32.088, 1583739152088
107, -28871.77, -33933.86, -23140.45, -18754.16, -23187.16, -23255.49, -25866.31, -25513.00, 0.000, 0.000, 0.000, 10:32:32.088, 1583739152088
108, -29048.10, -33983.59, -23154.42, -18712.01, -23269.13, -23194.92, -26005.14, -25549.81, 0.000, 0.000, 0.000, 10:32:32.088, 1583739152088
109, -29609.71, -34023.31, -23295.79, -18879.31, -23990.69, -23359.49, -26299.51, -25910.12, 0.000, 0.000, 0.000, 10:32:32.089, 1583739152089
110, -29887.90, -34033.14, -23394.59, -18998.89, -24417.85, -23463.97, -26420.41, -26142.04, 0.000, 0.000, 0.000, 10:32:32.089, 1583739152089
111, -29494.96, -33988.57, -23309.47, -18895.14, -23970.14, -23364.88, -26185.27, -25918.34, 0.000, 0.000, 0.000, 10:32:32.089, 1583739152089
112, -28870.54, -33933.57, -23143.93, -18746.59, -23192.57, -23248.63, -25868.39, -25507.79, 0.000, 0.000, 0.000, 10:32:32.089, 1583739152089
113, -29044.77, -33981.96, -23154.15, -18700.94, -23267.79, -23185.04, -26002.83, -25538.07, 0.002, -0.018, 0.972, 10:32:32.089, 1583739152089
114, -29610.36, -34030.26, -23300.71, -18867.53, -23994.37, -23350.31, -26303.00, -25898.34, 0.000, 0.000, 0.000, 10:32:32.090, 1583739152090
115, -29884.93, -34033.28, -23388.69, -18979.22, -24413.51, -23448.59, -26418.02, -26122.44, 0.000, 0.000, 0.000, 10:32:32.090, 1583739152090
116, -29496.12, -33979.43, -23301.67, -18872.27, -23967.69, -23346.82, -26182.72, -25898.59, 0.000, 0.000, 0.000, 10:32:32.090, 1583739152090
117, -28864.79, -33918.28, -23140.96, -18725.82, -23196.73, -23233.01, -25871.56, -25487.49, 0.000, 0.000, 0.000, 10:32:32.090, 1583739152090
118, -29030.94, -33973.96, -23164.19, -18694.53, -23274.54, -23180.68, -26013.67, -25521.76, 0.000, 0.000, 0.000, 10:32:32.090, 1583739152090
119, -29597.29, -34019.78, -23316.87, -18873.88, -24004.25, -23355.83, -26318.20, -25890.05, 0.000, 0.000, 0.000, 10:32:32.090, 1583739152090
120, -29879.74, -34019.04, -23413.45, -18992.72, -24435.80, -23462.02, -26439.19, -26125.03, 0.000, 0.000, 0.000, 10:32:32.091, 1583739152091
121, -29500.99, -33980.24, -23323.24, -18884.92, -23993.12, -23362.09, -26204.49, -25908.78, 0.000, 0.000, 0.000, 10:32:32.091, 1583739152091
122, -28867.77, -33926.62, -23145.50, -18735.68, -23204.71, -23244.63, -25877.60, -25496.72, 0.000, 0.000, 0.000, 10:32:32.091, 1583739152091
123, -29030.04, -33976.24, -23159.16, -18701.79, -23266.24, -23188.50, -26007.97, -25528.28, 0.004, -0.018, 0.968, 10:32:32.091, 1583739152091
124, -29597.96, -34020.49, -23305.43, -18873.05, -23990.37, -23354.69, -26308.85, -25892.97, 0.000, 0.000, 0.000, 10:32:32.092, 1583739152092
125, -29878.34, -34027.73, -23389.83, -18985.28, -24417.42, -23455.45, -26423.81, -26123.98, 0.000, 0.000, 0.000, 10:32:32.092, 1583739152092
126, -29496.12, -33980.62, -23291.23, -18878.01, -23968.20, -23351.63, -26182.05, -25905.49, 0.000, 0.000, 0.000, 10:32:32.092, 1583739152092
127, -28859.28, -33917.43, -23125.94, -18732.91, -23183.68, -23236.36, -25856.74, -25491.11, 0.000, 0.000, 0.000, 10:32:32.092, 1583739152092
128, -29017.35, -33967.43, -23138.30, -18697.57, -23241.54, -23176.57, -25982.58, -25518.11, 0.000, 0.000, 0.000, 10:32:32.092, 1583739152092
129, -29586.09, -34016.47, -23285.20, -18871.13, -23963.68, -23345.79, -26285.27, -25885.87, 0.000, 0.000, 0.000, 10:32:32.092, 1583739152092
130, -29876.73, -34027.67, -23382.05, -18995.12, -24403.77, -23453.84, -26410.28, -26124.70, 0.000, 0.000, 0.000, 10:32:32.093, 1583739152093
131, -29511.16, -33987.97, -23303.39, -18897.15, -23978.30, -23358.27, -26182.14, -25917.47, 0.000, 0.000, 0.000, 10:32:32.093, 1583739152093
132, -28876.15, -33930.17, -23142.97, -18748.62, -23196.33, -23245.23, -25859.98, -25506.56, 0.000, 0.000, 0.000, 10:32:32.093, 1583739152093
133, -29026.62, -33976.35, -23150.62, -18709.21, -23244.16, -23183.05, -25984.19, -25529.51, 0.010, -0.020, 0.970, 10:32:32.093, 1583739152093
134, -29592.01, -34017.83, -23279.54, -18870.93, -23953.98, -23341.68, -26280.46, -25889.00, 0.000, 0.000, 0.000, 10:32:32.093, 1583739152093
135, -29883.81, -34028.70, -23374.85, -18993.66, -24393.42, -23452.08, -26408.83, -26129.23, 0.000, 0.000, 0.000, 10:32:32.093, 1583739152093
136, -29513.04, -33985.40, -23295.41, -18889.01, -23971.51, -23352.81, -26181.13, -25919.02, 0.000, 0.000, 0.000, 10:32:32.093, 1583739152093
137, -28871.03, -33927.04, -23132.69, -18738.14, -23187.65, -23236.78, -25855.16, -25503.90, 0.000, 0.000, 0.000, 10:32:32.093, 1583739152093
138, -29018.78, -33977.76, -23146.95, -18697.48, -23237.63, -23175.43, -25982.47, -25523.77, 0.000, 0.000, 0.000, 10:32:32.094, 1583739152094
139, -29584.95, -34023.94, -23292.84, -18864.96, -23961.96, -23338.93, -26286.03, -25884.37, 0.000, 0.000, 0.000, 10:32:32.094, 1583739152094
140, -29879.34, -34028.34, -23382.81, -18986.91, -24406.58, -23449.30, -26416.01, -26124.07, 0.000, 0.000, 0.000, 10:32:32.094, 1583739152094
141, -29518.23, -33983.01, -23305.38, -18887.63, -23993.12, -23355.09, -26199.55, -25919.86, 0.000, 0.000, 0.000, 10:32:32.094, 1583739152094
142, -28873.65, -33921.43, -23145.95, -18743.21, -23212.13, -23242.95, -25878.22, -25503.99, 0.000, 0.000, 0.000, 10:32:32.094, 1583739152094
143, -29014.49, -33971.16, -23157.28, -18703.85, -23253.01, -23183.92, -26004.96, -25520.95, 0.008, -0.016, 0.972, 10:32:32.094, 1583739152094
144, -29584.68, -34023.24, -23308.04, -18877.84, -23980.45, -23351.52, -26313.99, -25885.58, 0.000, 0.000, 0.000, 10:32:32.094, 1583739152094
145, -29875.27, -34026.53, -23404.09, -19000.81, -24429.43, -23461.80, -26438.71, -26125.21, 0.000, 0.000, 0.000, 10:32:32.095, 1583739152095
146, -29516.17, -33981.45, -23319.62, -18900.39, -24012.30, -23364.75, -26212.81, -25922.93, 0.000, 0.000, 0.000, 10:32:32.095, 1583739152095
147, -28872.44, -33917.23, -23148.40, -18748.24, -23218.12, -23247.00, -25880.99, -25503.79, 0.000, 0.000, 0.000, 10:32:32.095, 1583739152095
148, -29003.71, -33969.00, -23150.88, -18698.55, -23244.63, -23178.47, -25992.55, -25512.19, 0.000, 0.000, 0.000, 10:32:32.099, 1583739152099
149, -29571.76, -34022.06, -23292.24, -18867.06, -23961.16, -23342.95, -26292.45, -25875.61, 0.000, 0.000, 0.000, 10:32:32.099, 1583739152099
150, -29870.65, -34022.91, -23383.08, -18993.44, -24408.60, -23458.36, -26418.60, -26122.73, 0.000, 0.000, 0.000, 10:32:32.099, 1583739152099
151, -29517.18, -33978.14, -23304.80, -18898.78, -24001.88, -23365.93, -26197.61, -25928.34, 0.000, 0.000, 0.000, 10:32:32.099, 1583739152099
152, -28877.47, -33925.57, -23147.40, -18760.13, -23216.13, -23258.71, -25870.04, -25517.89, 0.000, 0.000, 0.000, 10:32:32.099, 1583739152099
153, -28997.72, -33964.35, -23150.13, -18713.46, -23233.77, -23189.78, -25977.87, -25520.84, 0.000, -0.016, 0.974, 10:32:32.099, 1583739152099
154, -29562.35, -34007.26, -23290.16, -18876.27, -23947.68, -23346.06, -26281.54, -25879.74, 0.000, 0.000, 0.000, 10:32:32.100, 1583739152100
155, -29865.48, -34020.23, -23389.27, -19003.27, -24403.28, -23460.50, -26414.75, -26127.33, 0.000, 0.000, 0.000, 10:32:32.100, 1583739152100
156, -29516.88, -33976.15, -23299.77, -18899.49, -23990.57, -23358.96, -26190.86, -25927.93, 0.000, 0.000, 0.000, 10:32:32.100, 1583739152100
157, -28866.25, -33908.29, -23125.27, -18738.74, -23191.25, -23236.63, -25853.81, -25502.49, 0.000, 0.000, 0.000, 10:32:32.100, 1583739152100
158, -28990.41, -33956.93, -23131.26, -18694.80, -23208.17, -23172.10, -25965.89, -25507.18, 0.000, 0.000, 0.000, 10:32:32.100, 1583739152100
159, -29563.06, -34012.34, -23276.46, -18864.25, -23922.94, -23335.49, -26273.27, -25870.49, 0.000, 0.000, 0.000, 10:32:32.100, 1583739152100
160, -29868.34, -34020.83, -23380.97, -18999.81, -24388.99, -23456.08, -26412.09, -26124.07, 0.000, 0.000, 0.000, 10:32:32.100, 1583739152100
161, -29519.43, -33977.64, -23303.88, -18901.33, -23996.65, -23358.96, -26195.08, -25929.10, 0.000, 0.000, 0.000, 10:32:32.100, 1583739152100
162, -28878.54, -33924.00, -23140.45, -18752.02, -23205.11, -23247.60, -25865.50, -25514.74, 0.000, 0.000, 0.000, 10:32:32.101, 1583739152101
163, -28996.31, -33969.71, -23143.42, -18705.37, -23216.29, -23181.71, -25973.26, -25518.74, -0.002, -0.016, 0.980, 10:32:32.101, 1583739152101
164, -29566.26, -34018.01, -23289.82, -18874.39, -23933.33, -23345.77, -26281.83, -25884.55, 0.000, 0.000, 0.000, 10:32:32.101, 1583739152101
165, -29873.24, -34022.39, -23386.32, -18999.29, -24399.86, -23461.49, -26418.62, -26133.57, 0.000, 0.000, 0.000, 10:32:32.101, 1583739152101
166, -29532.62, -33985.96, -23311.62, -18901.80, -24009.64, -23366.04, -26207.78, -25943.45, 0.000, 0.000, 0.000, 10:32:32.101, 1583739152101
167, -28882.07, -33925.07, -23152.18, -18759.64, -23222.19, -23256.32, -25880.75, -25526.76, 0.000, 0.000, 0.000, 10:32:32.101, 1583739152101
168, -28997.56, -33966.69, -23159.04, -18714.09, -23233.88, -23191.57, -25992.08, -25522.76, 0.000, 0.000, 0.000, 10:32:32.101, 1583739152101
169, -29565.37, -34015.22, -23298.41, -18871.80, -23944.35, -23345.28, -26297.83, -25876.77, 0.000, 0.000, 0.000, 10:32:32.102, 1583739152102
170, -29874.49, -34024.72, -23393.92, -18993.44, -24412.93, -23461.02, -26433.42, -26125.37, 0.000, 0.000, 0.000, 10:32:32.102, 1583739152102
171, -29535.48, -33982.00, -23318.48, -18892.41, -24027.61, -23361.35, -26217.90, -25932.74, 0.000, 0.000, 0.000, 10:32:32.102, 1583739152102
172, -28883.24, -33918.48, -23157.81, -18748.46, -23235.33, -23250.11, -25885.26, -25513.87, 0.000, 0.000, 0.000, 10:32:32.102, 1583739152102
173, -28985.54, -33958.87, -23162.40, -18704.52, -23238.21, -23186.71, -25988.04, -25510.85, 0.000, -0.020, 0.974, 10:32:32.102, 1583739152102
174, -29554.84, -34007.78, -23306.41, -18868.76, -23953.07, -23346.11, -26294.39, -25873.04, 0.000, 0.000, 0.000, 10:32:32.102, 1583739152102
175, -29871.41, -34018.46, -23407.95, -19000.79, -24427.19, -23467.81, -26434.96, -26129.66, 0.000, 0.000, 0.000, 10:32:32.102, 1583739152102
176, -29541.21, -33977.20, -23326.55, -18909.06, -24040.66, -23374.60, -26223.80, -25945.84, 0.000, 0.000, 0.000, 10:32:32.102, 1583739152102
177, -28887.04, -33913.83, -23160.32, -18764.56, -23237.92, -23261.59, -25886.58, -25525.38, 0.000, 0.000, 0.000, 10:32:32.103, 1583739152103
178, -28984.51, -33957.75, -23153.86, -18710.29, -23222.01, -23188.39, -25980.33, -25510.80, 0.000, 0.000, 0.000, 10:32:32.103, 1583739152103
179, -29550.05, -34008.43, -23282.20, -18854.84, -23923.34, -23332.27, -26278.19, -25860.95, 0.000, 0.000, 0.000, 10:32:32.103, 1583739152103
180, -29867.99, -34017.61, -23380.17, -18980.97, -24399.07, -23449.30, -26416.50, -26115.02, 0.000, 0.000, 0.000, 10:32:32.103, 1583739152103
181, -29539.73, -33976.68, -23306.10, -18886.73, -24022.07, -23351.45, -26207.02, -25929.39, 0.000, 0.000, 0.000, 10:32:32.103, 1583739152103
182, -28886.30, -33911.71, -23137.56, -18742.27, -23224.04, -23238.30, -25869.82, -25508.23, 0.000, 0.000, 0.000, 10:32:32.103, 1583739152103
183, -28979.79, -33948.12, -23129.05, -18687.27, -23203.08, -23163.85, -25963.76, -25492.88, 0.000, -0.020, 0.978, 10:32:32.103, 1583739152103
184, -29551.33, -34006.41, -23269.26, -18847.50, -23908.39, -23314.48, -26265.09, -25849.03, 0.000, 0.000, 0.000, 10:32:32.104, 1583739152104
185, -29871.68, -34019.62, -23368.66, -18976.61, -24384.63, -23434.39, -26401.81, -26104.47, 0.000, 0.000, 0.000, 10:32:32.104, 1583739152104
186, -29554.93, -33986.70, -23301.60, -18885.55, -24015.50, -23344.36, -26200.07, -25929.41, 0.000, 0.000, 0.000, 10:32:32.104, 1583739152104
187, -28898.08, -33925.39, -23135.33, -18743.10, -23212.33, -23233.70, -25862.13, -25509.80, 0.000, 0.000, 0.000, 10:32:32.104, 1583739152104
188, -28984.69, -33964.57, -23129.34, -18688.49, -23189.82, -23162.06, -25955.22, -25493.17, 0.000, 0.000, 0.000, 10:32:32.104, 1583739152104
189, -29548.54, -34012.09, -23262.44, -18838.43, -23895.96, -23309.25, -26257.64, -25846.37, 0.000, 0.000, 0.000, 10:32:32.104, 1583739152104
190, -29869.19, -34019.58, -23366.09, -18974.75, -24380.41, -23435.76, -26401.86, -26107.75, 0.000, 0.000, 0.000, 10:32:32.104, 1583739152104
191, -29551.82, -33984.46, -23294.29, -18883.29, -24017.37, -23345.30, -26201.27, -25934.10, 0.000, 0.000, 0.000, 10:32:32.105, 1583739152105
192, -28891.69, -33924.29, -23134.52, -18740.84, -23221.27, -23235.53, -25865.82, -25515.74, 0.000, 0.000, 0.000, 10:32:32.105, 1583739152105
193, -28973.43, -33963.09, -23130.30, -18685.86, -23193.38, -23161.82, -25956.10, -25496.16, 0.004, -0.016, 0.970, 10:32:32.105, 1583739152105
194, -29551.20, -34013.54, -23271.45, -18843.50, -23903.67, -23316.15, -26268.04, -25854.96, 0.000, 0.000, 0.000, 10:32:32.105, 1583739152105
195, -29876.21, -34019.15, -23371.79, -18979.92, -24390.92, -23443.11, -26412.70, -26115.55, 0.000, 0.000, 0.000, 10:32:32.105, 1583739152105
196, -29561.68, -33983.12, -23304.02, -18895.38, -24034.29, -23356.74, -26216.43, -25945.52, 0.000, 0.000, 0.000, 10:32:32.105, 1583739152105
197, -28896.38, -33917.61, -23145.39, -18743.70, -23237.45, -23241.72, -25880.37, -25519.61, 0.000, 0.000, 0.000, 10:32:32.106, 1583739152106
198, -28968.42, -33950.11, -23138.90, -18683.04, -23201.15, -23164.83, -25968.12, -25489.19, 0.000, 0.000, 0.000, 10:32:32.106, 1583739152106
199, -29533.72, -33998.14, -23278.67, -18842.79, -23904.34, -23315.75, -26273.51, -25841.37, 0.000, 0.000, 0.000, 10:32:32.106, 1583739152106
200, -29857.91, -34008.71, -23383.37, -18984.07, -24397.53, -23446.20, -26418.13, -26105.21, 0.000, 0.000, 0.000, 10:32:32.106, 1583739152106
201, -29551.60, -33975.23, -23313.67, -18899.47, -24045.63, -23358.33, -26219.58, -25938.55, 0.000, 0.000, 0.000, 10:32:32.106, 1583739152106
202, -28894.93, -33913.07, -23150.51, -18754.86, -23242.17, -23250.55, -25881.55, -25520.44, 0.000, 0.000, 0.000, 10:32:32.106, 1583739152106
203, -28969.65, -33954.22, -23142.15, -18697.32, -23195.43, -23178.56, -25968.05, -25497.62, 0.000, 0.000, 0.000, 10:32:32.107, 1583739152107
204, -29541.90, -34010.97, -23283.23, -18850.50, -23899.51, -23326.59, -26277.34, -25852.47, 0.002, -0.018, 0.962, 10:32:32.107, 1583739152107
205, -29873.69, -34023.91, -23389.96, -18989.84, -24397.62, -23457.80, -26427.25, -26118.64, 0.000, 0.000, 0.000, 10:32:32.107, 1583739152107
206, -29567.58, -33980.86, -23322.12, -18905.17, -24051.75, -23370.11, -26233.48, -25952.95, 0.000, 0.000, 0.000, 10:32:32.107, 1583739152107
207, -28901.16, -33908.58, -23152.14, -18758.39, -23243.89, -23255.69, -25886.40, -25526.94, 0.000, 0.000, 0.000, 10:32:32.107, 1583739152107
208, -28962.16, -33943.16, -23143.58, -18704.27, -23195.57, -23181.46, -25965.22, -25495.47, 0.000, 0.000, 0.000, 10:32:32.107, 1583739152107
209, -29528.49, -34001.76, -23285.42, -18858.70, -23896.12, -23328.54, -26273.04, -25848.12, 0.000, 0.000, 0.000, 10:32:32.108, 1583739152108
210, -29858.67, -34014.04, -23387.93, -18993.91, -24393.73, -23454.20, -26420.43, -26110.57, 0.000, 0.000, 0.000, 10:32:32.560, 1583739152560
211, -29567.98, -33980.84, -23327.40, -18908.39, -24057.36, -23365.28, -26232.01, -25949.57, 0.000, 0.000, 0.000, 10:32:32.561, 1583739152561
212, -28907.60, -33917.81, -23143.76, -18751.59, -23239.20, -23245.66, -25882.92, -25522.61, 0.000, 0.000, 0.000, 10:32:32.561, 1583739152561
213, -28965.54, -33955.09, -23123.82, -18689.25, -23176.84, -23167.74, -25956.39, -25487.74, 0.000, 0.000, 0.000, 10:32:32.561, 1583739152561
214, -29536.44, -34008.25, -23273.57, -18848.98, -23885.05, -23320.09, -26271.48, -25847.60, 0.000, -0.020, 0.960, 10:32:32.561, 1583739152561
215, -29868.17, -34019.38, -23379.63, -18993.66, -24387.79, -23454.51, -26422.42, -26119.46, 0.000, 0.000, 0.000, 10:32:32.561, 1583739152561
216, -29574.78, -33984.60, -23312.56, -18908.28, -24052.96, -23365.93, -26231.83, -25961.97, 0.000, 0.000, 0.000, 10:32:32.562, 1583739152562
217, -28904.80, -33917.88, -23139.89, -18748.93, -23238.68, -23241.32, -25881.33, -25529.69, 0.000, 0.000, 0.000, 10:32:32.562, 1583739152562
218, -28959.14, -33956.03, -23130.08, -18689.77, -23175.32, -23163.43, -25956.45, -25490.69, 0.000, 0.000, 0.000, 10:32:32.562, 1583739152562
219, -29533.29, -34005.50, -23274.02, -18847.19, -23877.50, -23311.88, -26267.54, -25844.45, 0.000, 0.000, 0.000, 10:32:32.562, 1583739152562
220, -29870.09, -34013.68, -23379.03, -18988.79, -24384.23, -23443.94, -26417.17, -26111.37, 0.000, 0.000, 0.000, 10:32:32.563, 1583739152563
221, -29583.27, -33983.52, -23312.24, -18893.86, -24051.79, -23350.22, -26227.74, -25951.00, 0.000, 0.000, 0.000, 10:32:32.563, 1583739152563
222, -28916.70, -33918.01, -23149.19, -18746.32, -23244.67, -23238.55, -25884.53, -25526.34, 0.000, 0.000, 0.000, 10:32:32.563, 1583739152563
223, -28960.08, -33951.41, -23136.49, -18683.02, -23175.36, -23161.28, -25955.45, -25482.46, 0.000, 0.000, 0.000, 10:32:32.563, 1583739152563
224, -29526.63, -34000.51, -23271.00, -18832.17, -23873.49, -23303.08, -26262.54, -25831.22, 0.000, -0.022, 0.968, 10:32:32.564, 1583739152564
225, -29864.79, -34006.50, -23383.25, -18982.15, -24389.71, -23444.88, -26419.69, -26105.99, 0.000, 0.000, 0.000, 10:32:32.564, 1583739152564
226, -29581.17, -33971.77, -23329.92, -18904.17, -24075.20, -23364.08, -26239.23, -25957.10, 0.000, 0.000, 0.000, 10:32:32.564, 1583739152564
227, -28913.34, -33911.11, -23166.71, -18762.81, -23271.61, -23257.97, -25896.42, -25536.98, 0.000, 0.000, 0.000, 10:32:32.564, 1583739152564
228, -28950.11, -33951.27, -23149.81, -18699.71, -23190.96, -23181.02, -25965.55, -25491.78, 0.000, 0.000, 0.000, 10:32:32.564, 1583739152564
229, -29516.39, -34005.43, -23287.70, -18844.58, -23886.24, -23320.45, -26272.66, -25840.49, 0.000, 0.000, 0.000, 10:32:32.565, 1583739152565
230, -29864.88, -34017.81, -23393.58, -18989.35, -24404.33, -23458.76, -26427.81, -26115.46, 0.000, 0.000, 0.000, 10:32:32.565, 1583739152565
231, -29589.33, -33983.57, -23329.83, -18910.34, -24088.16, -23375.70, -26244.30, -25967.83, 0.000, 0.000, 0.000, 10:32:32.565, 1583739152565
232, -28916.92, -33916.80, -23155.54, -18754.99, -23271.83, -23257.28, -25892.28, -25538.32, 0.000, 0.000, 0.000, 10:32:32.565, 1583739152565
233, -28951.56, -33951.38, -23141.65, -18692.23, -23187.12, -23179.03, -25957.95, -25489.06, 0.000, 0.000, 0.000, 10:32:32.565, 1583739152565
234, -29519.75, -33997.16, -23279.99, -18842.25, -23880.07, -23320.94, -26268.13, -25837.52, 0.004, -0.020, 0.968, 10:32:32.566, 1583739152566
235, -29863.99, -34012.34, -23385.04, -18984.39, -24395.83, -23455.72, -26422.76, -26110.32, 0.000, 0.000, 0.000, 10:32:32.566, 1583739152566
236, -29591.47, -33984.57, -23326.15, -18903.61, -24084.16, -23370.83, -26243.94, -25964.34, 0.000, 0.000, 0.000, 10:32:32.566, 1583739152566
237, -28922.31, -33919.26, -23157.61, -18758.39, -23269.06, -23256.63, -25892.88, -25538.81, 0.000, 0.000, 0.000, 10:32:32.566, 1583739152566
238, -28955.05, -33952.39, -23139.40, -18701.19, -23177.22, -23178.96, -25955.72, -25488.95, 0.000, 0.000, 0.000, 10:32:32.566, 1583739152566
239, -29522.81, -34006.19, -23275.79, -18844.64, -23867.50, -23315.46, -26262.88, -25834.06, 0.000, 0.000, 0.000, 10:32:32.567, 1583739152567
240, -29866.20, -34015.53, -23376.93, -18975.31, -24380.03, -23444.21, -26412.32, -26102.43, 0.000, 0.000, 0.000, 10:32:32.570, 1583739152570
241, -29598.67, -33988.26, -23318.66, -18890.71, -24075.15, -23357.04, -26235.65, -25958.49, 0.000, 0.000, 0.000, 10:32:32.570, 1583739152570
242, -28929.06, -33927.38, -23153.14, -18752.08, -23263.94, -23247.65, -25887.70, -25536.78, 0.000, 0.000, 0.000, 10:32:32.571, 1583739152571
243, -28952.48, -33956.70, -23138.39, -18696.76, -23166.89, -23172.34, -25949.08, -25485.70, 0.000, 0.000, 0.000, 10:32:32.571, 1583739152571
244, -29516.80, -34008.71, -23275.27, -18832.37, -23855.05, -23303.91, -26255.32, -25827.87, 0.000, -0.020, 0.970, 10:32:32.571, 1583739152571
245, -29865.55, -34018.21, -23383.05, -18972.88, -24381.88, -23441.99, -26413.79, -26104.54, 0.000, 0.000, 0.000, 10:32:32.571, 1583739152571
246, -29603.59, -33980.95, -23326.30, -18899.23, -24087.22, -23362.13, -26241.55, -25969.15, 0.000, 0.000, 0.000, 10:32:32.571, 1583739152571
247, -28934.49, -33920.38, -23159.45, -18753.09, -23272.95, -23248.88, -25892.24, -25544.71, 0.000, 0.000, 0.000, 10:32:32.571, 1583739152571
248, -28949.13, -33955.38, -23129.27, -18681.74, -23158.33, -23162.46, -25943.27, -25482.11, 0.000, 0.000, 0.000, 10:32:32.571, 1583739152571
249, -29509.35, -34004.42, -23261.04, -18818.94, -23843.66, -23295.35, -26249.08, -25822.05, 0.000, 0.000, 0.000, 10:32:32.572, 1583739152572
250, -29861.57, -34014.30, -23377.33, -18973.48, -24377.01, -23446.31, -26413.17, -26104.85, 0.000, 0.000, 0.000, 10:32:32.572, 1583739152572
251, -29603.92, -33983.19, -23329.34, -18904.86, -24090.91, -23369.46, -26248.59, -25973.20, 0.000, 0.000, 0.000, 10:32:32.573, 1583739152573
252, -28929.93, -33916.20, -23167.49, -18758.90, -23285.62, -23255.89, -25901.00, -25548.83, 0.000, 0.000, 0.000, 10:32:32.574, 1583739152574
253, -28938.74, -33945.48, -23137.70, -18680.78, -23169.75, -23162.15, -25949.48, -25479.42, 0.000, 0.000, 0.000, 10:32:32.574, 1583739152574
254, -29504.10, -33998.43, -23261.33, -18815.18, -23845.11, -23290.85, -26252.06, -25815.46, -0.002, -0.022, 0.972, 10:32:32.574, 1583739152574
255, -29862.31, -34012.78, -23380.75, -18976.45, -24385.35, -23447.47, -26420.30, -26102.14, 0.000, 0.000, 0.000, 10:32:32.574, 1583739152574
0, -29607.99, -33980.30, -23338.37, -18906.69, -24106.89, -23368.61, -26258.38, -25972.77, 0.000, 0.000, 0.000, 10:32:32.574, 1583739152574
1, -28931.54, -33912.47, -23160.92, -18748.35, -23282.40, -23243.73, -25897.80, -25538.61, 0.000, 0.000, 0.000, 10:32:32.574, 1583739152574
2, -28930.20, -33937.66, -23125.36, -18674.17, -23152.76, -23151.38, -25936.36, -25465.14, 0.000, 0.000, 0.000, 10:32:32.575, 1583739152575
3, -29498.22, -33991.21, -23262.96, -18820.55, -23841.17, -23290.83, -26248.52, -25810.27, 0.000, 0.000, 0.000, 10:32:32.575, 1583739152575
4, -29852.45, -33996.71, -23371.34, -18965.66, -24375.78, -23435.04, -26407.02, -26087.14, 0.000, 0.000, 0.000, 10:32:32.575, 1583739152575
5, -29600.84, -33970.67, -23327.29, -18896.21, -24099.70, -23358.00, -26245.02, -25960.05, 0.000, 0.000, 0.000, 10:32:32.575, 1583739152575
6, -28931.14, -33910.16, -23160.47, -18757.81, -23289.53, -23251.16, -25897.09, -25541.20, 0.000, 0.000, 0.000, 10:32:32.576, 1583739152576
7, -28926.11, -33940.41, -23129.38, -18697.26, -23160.74, -23168.19, -25939.85, -25473.34, 0.000, 0.000, 0.000, 10:32:32.576, 1583739152576
8, -29492.39, -33998.45, -23268.39, -18843.06, -23846.11, -23306.48, -26249.40, -25819.15, 0.004, -0.020, 0.968, 10:32:32.576, 1583739152576
9, -29852.50, -34006.25, -23376.39, -18982.49, -24382.22, -23451.11, -26412.88, -26100.33, 0.000, 0.000, 0.000, 10:32:32.577, 1583739152577
10, -29609.62, -33976.19, -23329.43, -18903.67, -24107.41, -23370.13, -26251.03, -25975.41, 0.000, 0.000, 0.000, 10:32:32.577, 1583739152577
11, -28933.04, -33915.46, -23157.57, -18745.31, -23286.96, -23247.76, -25891.84, -25543.33, 0.000, 0.000, 0.000, 10:32:32.577, 1583739152577
12, -28924.95, -33939.09, -23117.80, -18665.96, -23139.66, -23150.26, -25923.75, -25459.80, 0.000, 0.000, 0.000, 10:32:32.577, 1583739152577
13, -29492.37, -33995.75, -23256.95, -18810.80, -23822.98, -23287.52, -26238.42, -25802.79, 0.000, 0.000, 0.000, 10:32:32.578, 1583739152578
14, -29854.15, -34005.18, -23377.60, -18969.75, -24372.52, -23444.39, -26409.05, -26091.77, 0.000, 0.000, 0.000, 10:32:32.578, 1583739152578
15, -29615.81, -33975.32, -23325.88, -18899.43, -24105.21, -23364.59, -26248.52, -25969.53, 0.000, 0.000, 0.000, 10:32:32.578, 1583739152578
16, -28935.72, -33908.40, -23149.41, -18747.50, -23285.87, -23243.38, -25888.73, -25539.44, 0.000, 0.000, 0.000, 10:32:32.578, 1583739152578
17, -28921.14, -33933.28, -23127.82, -18681.32, -23146.55, -23157.68, -25931.58, -25464.65, 0.000, 0.000, 0.000, 10:32:32.578, 1583739152578
18, -29483.22, -33984.82, -23264.63, -18819.97, -23828.59, -23291.14, -26243.90, -25805.89, 0.000, -0.020, 0.964, 10:32:32.579, 1583739152579
19, -29845.48, -34000.46, -23374.11, -18973.54, -24375.94, -23446.58, -26411.92, -26095.91, 0.000, 0.000, 0.000, 10:32:32.579, 1583739152579
20, -29613.54, -33976.35, -23332.96, -18911.30, -24123.70, -23374.31, -26258.09, -25982.76, 0.000, 0.000, 0.000, 10:32:32.579, 1583739152579
21, -28933.88, -33906.05, -23163.71, -18761.14, -23306.74, -23257.35, -25900.33, -25553.47, 0.000, 0.000, 0.000, 10:32:32.579, 1583739152579
22, -28911.18, -33931.73, -23137.88, -18686.48, -23162.38, -23168.50, -25937.30, -25472.79, 0.000, 0.000, 0.000, 10:32:32.579, 1583739152579
23, -29475.49, -33989.92, -23274.74, -18818.85, -23841.35, -23298.14, -26250.13, -25811.73, 0.000, 0.000, 0.000, 10:32:32.580, 1583739152580
24, -29841.19, -33994.83, -23378.18, -18965.23, -24385.91, -23446.17, -26412.54, -26095.19, 0.000, 0.000, 0.000, 10:32:32.580, 1583739152580
25, -29613.36, -33966.34, -23330.33, -18900.23, -24127.46, -23369.96, -26254.36, -25979.88, 0.000, 0.000, 0.000, 10:32:32.580, 1583739152580
26, -28935.27, -33899.97, -23165.21, -18760.69, -23310.61, -23258.15, -25900.04, -25556.34, 0.000, 0.000, 0.000, 10:32:32.580, 1583739152580
27, -28912.54, -33935.27, -23137.38, -18693.21, -23158.82, -23172.41, -25935.49, -25474.71, 0.000, 0.000, 0.000, 10:32:32.581, 1583739152581
28, -29481.26, -33997.61, -23273.19, -18831.10, -23834.02, -23302.95, -26247.50, -25814.19, 0.002, -0.020, 0.964, 10:32:32.581, 1583739152581
29, -29847.83, -34001.83, -23372.01, -18972.29, -24374.11, -23447.31, -26408.38, -26096.80, 0.000, 0.000, 0.000, 10:32:32.581, 1583739152581
30, -29619.10, -33970.02, -23320.60, -18895.18, -24115.90, -23364.41, -26250.94, -25978.69, 0.000, 0.000, 0.000, 10:32:32.581, 1583739152581
31, -28936.46, -33902.05, -23153.97, -18746.45, -23299.70, -23246.86, -25892.86, -25549.36, 0.000, 0.000, 0.000, 10:32:32.581, 1583739152581
32, -28903.35, -33934.55, -23126.63, -18683.98, -23141.79, -23162.66, -25923.06, -25463.58, 0.000, 0.000, 0.000, 10:32:32.582, 1583739152582
33, -29464.94, -33992.00, -23263.58, -18827.01, -23814.38, -23295.97, -26235.25, -25802.72, 0.000, 0.000, 0.000, 10:32:32.582, 1583739152582
34, -29839.02, -34002.48, -23382.70, -18990.20, -24372.07, -23457.04, -26410.31, -26099.21, 0.000, 0.000, 0.000, 10:32:32.582, 1583739152582
35, -29617.71, -33971.12, -23339.06, -18915.83, -24130.65, -23373.35, -26256.41, -25984.80, 0.000, 0.000, 0.000, 10:32:32.582, 1583739152582
36, -28939.38, -33906.12, -23158.46, -18752.38, -23306.19, -23247.04, -25892.26, -25549.54, 0.000, 0.000, 0.000, 10:32:32.582, 1583739152582
37, -28901.10, -33936.21, -23116.15, -18676.25, -23130.97, -23156.12, -25915.75, -25456.40, 0.000, 0.000, 0.000, 10:32:32.583, 1583739152583
38, -29461.61, -33992.42, -23244.07, -18806.78, -23795.62, -23281.08, -26225.46, -25790.80, 0.000, 0.000, 0.000, 10:32:32.583, 1583739152583
39, -29840.85, -34002.81, -23366.54, -18974.04, -24361.54, -23446.40, -26405.14, -26091.17, 0.004, -0.016, 0.962, 10:32:32.583, 1583739152583
40, -29630.79, -33973.89, -23334.95, -18917.38, -24131.86, -23378.16, -26263.34, -25991.41, 0.000, 0.000, 0.000, 10:32:32.583, 1583739152583
41, -28944.14, -33907.86, -23162.89, -18767.24, -23310.61, -23258.64, -25900.11, -25561.16, 0.000, 0.000, 0.000, 10:32:32.583, 1583739152583
42, -28892.47, -33930.42, -23117.58, -18683.51, -23128.53, -23160.72, -25916.31, -25458.84, 0.000, 0.000, 0.000, 10:32:32.584, 1583739152584
43, -29456.83, -33990.83, -23249.12, -18814.31, -23796.02, -23286.76, -26228.56, -25795.41, 0.000, 0.000, 0.000, 10:32:32.584, 1583739152584
44, -29835.91, -34002.75, -23364.39, -18969.79, -24361.72, -23443.76, -26405.25, -26091.91, 0.000, 0.000, 0.000, 10:32:32.584, 1583739152584
45, -29629.52, -33977.89, -23327.78, -18907.05, -24134.41, -23370.40, -26261.31, -25989.06, 0.000, 0.000, 0.000, 10:32:32.584, 1583739152584
46, -28953.53, -33918.12, -23168.30, -18767.89, -23326.84, -23261.26, -25907.06, -25565.81, 0.000, 0.000, 0.000, 10:32:32.584, 1583739152584
47, -28896.74, -33937.61, -23128.04, -18689.86, -23141.03, -23165.97, -25922.03, -25462.97, 0.000, 0.000, 0.000, 10:32:32.585, 1583739152585
48, -29460.92, -34000.00, -23267.25, -18827.41, -23809.14, -23294.00, -26237.42, -25801.60, 0.000, 0.000, 0.000, 10:32:32.586, 1583739152586
49, -29837.97, -34011.29, -23387.54, -18990.18, -24378.09, -23457.71, -26414.78, -26099.46, 0.006, -0.020, 0.960, 10:32:32.586, 1583739152586
50, -29633.41, -33980.57, -23342.08, -18922.29, -24151.69, -23382.12, -26271.41, -25997.92, 0.000, 0.000, 0.000, 10:32:32.587, 1583739152587
51, -28952.15, -33908.91, -23165.37, -18765.90, -23328.34, -23260.05, -25904.31, -25565.90, 0.000, 0.000, 0.000, 10:32:32.587, 1583739152587
52, -28889.05, -33930.28, -23121.29, -18686.21, -23134.97, -23164.36, -25914.19, -25458.55, 0.000, 0.000, 0.000, 10:32:32.587, 1583739152587
53, -29451.57, -33994.92, -23258.15, -18823.05, -23800.79, -23291.70, -26227.09, -25794.38, 0.000, 0.000, 0.000, 10:32:32.587, 1583739152587
54, -29835.58, -34009.47, -23379.90, -18985.26, -24370.35, -23455.79, -26404.29, -26092.73, 0.000, 0.000, 0.000, 10:32:32.587, 1583739152587
55, -29635.80, -33981.63, -23339.87, -18914.72, -24147.95, -23378.20, -26262.40, -25991.97, 0.000, 0.000, 0.000, 10:32:32.588, 1583739152588
56, -28949.22, -33905.41, -23165.24, -18763.98, -23326.59, -23258.15, -25900.26, -25563.18, 0.000, 0.000, 0.000, 10:32:32.588, 1583739152588
57, -28882.01, -33923.15, -23127.46, -18690.86, -23133.25, -23169.08, -25913.07, -25458.28, 0.000, 0.000, 0.000, 10:32:32.588, 1583739152588
58, -29442.37, -33985.09, -23260.10, -18811.61, -23794.68, -23285.76, -26227.00, -25786.96, 0.000, 0.000, 0.000, 10:32:32.588, 1583739152588
59, -29825.68, -33998.32, -23367.32, -18963.35, -24359.87, -23440.94, -26402.01, -26082.27, 0.004, -0.024, 0.960, 10:32:32.588, 1583739152588
60, -29631.46, -33971.75, -23328.04, -18901.84, -24144.96, -23367.94, -26260.53, -25987.75, 0.000, 0.000, 0.000, 10:32:32.589, 1583739152589
61, -28955.79, -33906.66, -23168.83, -18764.65, -23335.71, -23258.96, -25901.71, -25566.35, 0.000, 0.000, 0.000, 10:32:32.589, 1583739152589
62, -28883.06, -33928.67, -23126.46, -18689.84, -23131.71, -23166.24, -25908.33, -25454.93, 0.000, 0.000, 0.000, 10:32:32.589, 1583739152589
63, -29440.85, -33989.92, -23254.84, -18808.63, -23781.67, -23280.39, -26219.53, -25779.56, 0.000, 0.000, 0.000, 10:32:32.589, 1583739152589
64, -29827.82, -34004.63, -23371.14, -18960.11, -24357.63, -23437.97, -26397.77, -26076.48, 0.000, 0.000, 0.000, 10:32:32.589, 1583739152589
65, -29643.66, -33979.84, -23335.94, -18906.80, -24154.28, -23370.25, -26260.66, -25989.00, 0.000, 0.000, 0.000, 10:32:32.590, 1583739152590
66, -28965.33, -33913.00, -23164.39, -18761.83, -23338.24, -23254.53, -25900.06, -25562.44, 0.000, 0.000, 0.000, 10:32:32.590, 1583739152590
67, -28885.43, -33934.82, -23114.47, -18674.79, -23123.04, -23155.51, -25902.47, -25444.53, 0.000, 0.000, 0.000, 10:32:32.590, 1583739152590
68, -29444.18, -33996.27, -23249.72, -18804.66, -23779.73, -23276.68, -26216.90, -25776.19, 0.000, 0.000, 0.000, 10:32:32.590, 1583739152590
69, -29835.22, -34010.30, -23369.51, -18972.81, -24360.34, -23447.67, -26399.29, -26083.12, 0.004, -0.020, 0.964, 10:32:32.590, 1583739152590
70, -29649.07, -33985.13, -23332.34, -18906.63, -24160.13, -23372.55, -26262.72, -25993.33, 0.000, 0.000, 0.000, 10:32:32.591, 1583739152591
71, -28965.83, -33918.68, -23166.06, -18763.51, -23346.04, -23258.49, -25900.46, -25569.77, 0.000, 0.000, 0.000, 10:32:32.591, 1583739152591
72, -28884.04, -33943.34, -23120.13, -18682.06, -23128.22, -23164.32, -25900.44, -25452.96, 0.000, 0.000, 0.000, 10:32:32.591, 1583739152591
73, -29443.37, -34007.71, -23252.61, -18810.91, -23780.06, -23282.07, -26214.17, -25782.45, 0.000, 0.000, 0.000, 10:32:32.591, 1583739152591
74, -29835.76, -34020.16, -23371.88, -18972.96, -24359.73, -23447.13, -26397.12, -26086.27, 0.000, 0.000, 0.000, 10:32:33.038, 1583739153038
75, -29661.03, -33996.09, -23345.03, -18917.53, -24169.97, -23382.36, -26272.62, -26006.34, 0.000, 0.000, 0.000, 10:32:33.038, 1583739153038
76, -28974.72, -33925.34, -23175.12, -18770.44, -23356.12, -23265.88, -25912.64, -25579.87, 0.000, 0.000, 0.000, 10:32:33.038, 1583739153038
77, -28879.01, -33942.04, -23126.50, -18686.93, -23131.28, -23168.12, -25908.22, -25455.53, 0.000, 0.000, 0.000, 10:32:33.038, 1583739153038
