%OpenBCI Raw EEG Data
%Number of channels = 8
%Sample Rate = 250.0 Hz
%First Column = SampleIndex
%Last Column = Timestamp 
%Other Columns = EEG data in microvolts followed by Accel Data (in G) interleaved with Aux Data
0, 0.00, 0.00, 0.00, 0.00, 0.00, 0.00, 0.00, 0.00, -0.004, -0.020, 0.974, 10:46:19.386, 1583739979386
1, -24949.33, -30241.17, -19099.81, -15459.40, -17658.48, -20607.68, -22781.05, -20995.22, 0.000, 0.000, 0.000, 10:46:19.872, 1583739979872
2, -25416.14, -30308.96, -19174.29, -15504.06, -18082.98, -20627.20, -23013.80, -21190.08, 0.000, 0.000, 0.000, 10:46:19.873, 1583739979873
3, -25895.03, -30351.63, -19283.77, -15604.29, -18661.85, -20663.31, -23230.35, -21446.77, 0.000, 0.000, 0.000, 10:46:19.873, 1583739979873
4, -25844.11, -30334.58, -19285.62, -15593.94, -18628.21, -20653.64, -23183.03, -21439.50, 0.000, 0.000, 0.000, 10:46:19.873, 1583739979873
5, -25221.78, -30267.46, -19168.77, -15511.98, -18002.41, -20624.02, -22885.62, -21149.42, 0.000, 0.000, 0.000, 10:46:19.873, 1583739979873
6, -24954.87, -30252.77, -19100.44, -15455.25, -17660.47, -20603.14, -22781.28, -20992.51, 0.000, 0.000, 0.000, 10:46:19.873, 1583739979873
7, -25418.92, -30317.88, -19177.37, -15506.43, -18081.04, -20629.27, -23016.82, -21189.99, 0.000, 0.000, 0.000, 10:46:19.873, 1583739979873
8, -25889.44, -30360.75, -19290.38, -15612.04, -18659.21, -20669.87, -23233.79, -21447.15, 0.002, -0.018, 0.972, 10:46:19.873, 1583739979873
9, -25837.63, -30342.07, -19287.52, -15599.95, -18626.56, -20656.14, -23182.09, -21434.96, 0.000, 0.000, 0.000, 10:46:19.874, 1583739979874
10, -25218.18, -30264.75, -19169.44, -15515.06, -18004.55, -20625.52, -22883.34, -21146.54, 0.000, 0.000, 0.000, 10:46:19.874, 1583739979874
11, -24955.01, -30243.65, -19102.20, -15456.32, -17662.48, -20606.61, -22780.27, -20991.95, 0.000, 0.000, 0.000, 10:46:19.874, 1583739979874
12, -25414.22, -30313.70, -19170.89, -15498.79, -18076.93, -20624.27, -23008.71, -21180.00, 0.000, 0.000, 0.000, 10:46:19.877, 1583739979877
13, -25887.92, -30364.42, -19283.27, -15610.30, -18657.31, -20669.08, -23227.15, -21439.52, 0.000, 0.000, 0.000, 10:46:19.878, 1583739979878
14, -25840.11, -30342.56, -19284.84, -15600.11, -18629.64, -20657.26, -23179.41, -21434.18, 0.000, 0.000, 0.000, 10:46:19.878, 1583739979878
15, -25222.85, -30261.91, -19168.07, -15509.23, -18009.22, -20622.95, -22883.42, -21146.45, 0.000, 0.000, 0.000, 10:46:19.878, 1583739979878
16, -24964.80, -30252.04, -19100.17, -15452.34, -17665.41, -20606.25, -22783.22, -20995.06, 0.000, 0.000, 0.000, 10:46:19.879, 1583739979879
17, -25419.30, -30315.67, -19172.86, -15501.18, -18074.60, -20630.01, -23013.02, -21185.65, 0.000, 0.000, 0.000, 10:46:19.879, 1583739979879
18, -25876.48, -30354.05, -19282.09, -15611.37, -18648.66, -20671.14, -23223.78, -21435.63, 0.004, -0.020, 0.970, 10:46:19.879, 1583739979879
19, -25844.92, -30344.93, -19289.22, -15608.71, -18631.41, -20664.52, -23185.49, -21436.82, 0.000, 0.000, 0.000, 10:46:19.879, 1583739979879
20, -25236.04, -30272.20, -19172.03, -15517.07, -18009.74, -20628.45, -22890.11, -21150.25, 0.000, 0.000, 0.000, 10:46:19.879, 1583739979879
21, -24964.57, -30254.70, -19096.86, -15446.04, -17657.59, -20599.26, -22780.76, -20989.05, 0.000, 0.000, 0.000, 10:46:19.879, 1583739979879
22, -25417.51, -30309.95, -19166.02, -15486.27, -18064.54, -20616.94, -23005.82, -21173.56, 0.000, 0.000, 0.000, 10:46:19.880, 1583739979880
23, -25871.49, -30353.18, -19277.04, -15598.08, -18640.26, -20660.59, -23214.65, -21423.36, 0.000, 0.000, 0.000, 10:46:19.880, 1583739979880
24, -25837.52, -30342.92, -19282.38, -15593.11, -18628.17, -20649.64, -23175.83, -21423.39, 0.000, 0.000, 0.000, 10:46:19.880, 1583739979880
25, -25231.92, -30261.33, -19168.34, -15506.28, -18013.52, -20615.35, -22883.18, -21139.16, 0.000, 0.000, 0.000, 10:46:19.880, 1583739979880
26, -24967.66, -30250.40, -19103.37, -15450.80, -17665.63, -20598.85, -22782.42, -20985.90, 0.000, 0.000, 0.000, 10:46:19.880, 1583739979880
27, -25409.06, -30311.60, -19166.17, -15489.58, -18061.24, -20613.76, -22999.74, -21166.36, 0.000, 0.000, 0.000, 10:46:19.881, 1583739979881
28, -25855.09, -30347.99, -19271.03, -15600.22, -18629.49, -20655.07, -23201.45, -21412.97, 0.006, -0.012, 0.974, 10:46:19.881, 1583739979881
29, -25827.26, -30333.51, -19275.29, -15594.28, -18617.26, -20645.43, -23164.56, -21415.56, 0.000, 0.000, 0.000, 10:46:19.881, 1583739979881
30, -25231.34, -30255.19, -19165.01, -15510.25, -18008.31, -20617.23, -22880.18, -21139.05, 0.000, 0.000, 0.000, 10:46:19.881, 1583739979881
31, -24966.70, -30243.96, -19101.80, -15451.00, -17660.20, -20599.97, -22778.68, -20987.53, 0.000, 0.000, 0.000, 10:46:19.881, 1583739979881
32, -25411.59, -30313.64, -19172.34, -15490.07, -18061.59, -20620.98, -23004.77, -21171.91, 0.000, 0.000, 0.000, 10:46:19.881, 1583739979881
33, -25855.69, -30352.62, -19283.01, -15605.12, -18637.06, -20670.09, -23211.86, -21423.86, 0.000, 0.000, 0.000, 10:46:19.882, 1583739979882
34, -25830.32, -30337.89, -19289.60, -15608.29, -18631.90, -20665.06, -23175.88, -21431.66, 0.000, 0.000, 0.000, 10:46:19.882, 1583739979882
35, -25236.62, -30267.97, -19172.68, -15518.86, -18021.59, -20628.04, -22886.40, -21150.61, 0.000, 0.000, 0.000, 10:46:19.882, 1583739979882
36, -24967.72, -30256.53, -19102.45, -15452.77, -17664.18, -20604.60, -22781.84, -20993.23, 0.000, 0.000, 0.000, 10:46:19.882, 1583739979882
37, -25407.88, -30316.21, -19167.09, -15488.51, -18053.77, -20620.45, -23001.11, -21170.10, 0.000, 0.000, 0.000, 10:46:19.882, 1583739979882
38, -25848.99, -30351.50, -19274.18, -15601.27, -18626.87, -20664.79, -23204.42, -21414.85, 0.006, -0.016, 0.970, 10:46:19.882, 1583739979882
39, -25828.02, -30336.90, -19281.04, -15602.81, -18629.29, -20656.90, -23170.02, -21423.43, 0.000, 0.000, 0.000, 10:46:19.883, 1583739979883
40, -25234.54, -30263.10, -19165.53, -15508.98, -18023.42, -20620.69, -22883.34, -21145.49, 0.000, 0.000, 0.000, 10:46:19.883, 1583739979883
41, -24966.18, -30248.35, -19099.03, -15448.68, -17667.98, -20603.17, -22781.39, -20991.28, 0.000, 0.000, 0.000, 10:46:19.883, 1583739979883
42, -25400.46, -30311.36, -19168.72, -15494.21, -18058.29, -20625.59, -23004.32, -21172.33, 0.000, 0.000, 0.000, 10:46:19.883, 1583739979883
43, -25837.99, -30347.05, -19272.88, -15608.80, -18628.93, -20669.13, -23203.59, -21414.07, 0.000, 0.000, 0.000, 10:46:19.883, 1583739979883
44, -25827.51, -30334.69, -19283.10, -15610.41, -18635.19, -20662.24, -23174.22, -21427.59, 0.000, 0.000, 0.000, 10:46:19.883, 1583739979883
45, -25240.91, -30258.23, -19168.56, -15514.01, -18028.98, -20622.39, -22889.06, -21150.16, 0.000, 0.000, 0.000, 10:46:19.884, 1583739979884
46, -24969.11, -30247.94, -19094.20, -15441.75, -17661.86, -20594.49, -22777.81, -20986.66, 0.000, 0.000, 0.000, 10:46:19.884, 1583739979884
47, -25407.05, -30319.60, -19163.76, -15485.62, -18047.71, -20616.98, -22999.36, -21166.59, 0.000, 0.000, 0.000, 10:46:19.884, 1583739979884
48, -25839.64, -30351.79, -19271.65, -15603.91, -18619.43, -20663.20, -23199.72, -21409.10, 0.004, -0.018, 0.970, 10:46:19.884, 1583739979884
49, -25831.60, -30343.88, -19284.95, -15605.34, -18638.98, -20659.05, -23176.25, -21426.72, 0.000, 0.000, 0.000, 10:46:19.884, 1583739979884
50, -25245.74, -30269.60, -19168.86, -15510.81, -18036.14, -20621.36, -22892.41, -21149.82, 0.000, 0.000, 0.000, 10:46:19.884, 1583739979884
51, -24971.88, -30256.77, -19104.15, -15453.15, -17672.88, -20605.00, -22784.72, -20994.79, 0.000, 0.000, 0.000, 10:46:19.885, 1583739979885
52, -25405.91, -30319.20, -19172.83, -15499.06, -18057.68, -20628.18, -23005.98, -21173.85, 0.000, 0.000, 0.000, 10:46:19.885, 1583739979885
53, -25834.75, -30350.14, -19273.53, -15605.03, -18622.56, -20666.80, -23202.32, -21411.54, 0.000, 0.000, 0.000, 10:46:19.885, 1583739979885
54, -25829.68, -30341.69, -19282.11, -15599.21, -18637.02, -20656.45, -23178.00, -21426.25, 0.000, 0.000, 0.000, 10:46:19.885, 1583739979885
55, -25251.59, -30267.19, -19173.13, -15515.15, -18040.83, -20625.03, -22898.51, -21155.28, 0.000, 0.000, 0.000, 10:46:19.885, 1583739979885
56, -24970.61, -30239.61, -19104.62, -15453.19, -17673.14, -20605.09, -22786.82, -20992.96, 0.000, 0.000, 0.000, 10:46:19.886, 1583739979886
57, -25404.95, -30311.13, -19169.28, -15488.89, -18048.12, -20623.80, -23004.73, -21166.30, 0.000, 0.000, 0.000, 10:46:19.886, 1583739979886
58, -25834.46, -30349.06, -19273.39, -15601.05, -18618.67, -20666.62, -23204.26, -21406.24, 0.000, -0.014, 0.972, 10:46:19.886, 1583739979886
59, -25832.07, -30335.12, -19283.79, -15602.54, -18640.26, -20657.91, -23181.20, -21423.56, 0.000, 0.000, 0.000, 10:46:19.886, 1583739979886
60, -25255.55, -30260.73, -19172.90, -15511.98, -18044.12, -20620.31, -22901.17, -21151.50, 0.000, 0.000, 0.000, 10:46:19.886, 1583739979886
61, -24974.74, -30254.87, -19105.24, -15449.44, -17676.34, -20599.68, -22791.56, -20990.28, 0.000, 0.000, 0.000, 10:46:19.887, 1583739979887
62, -25397.64, -30322.73, -19167.89, -15487.55, -18048.74, -20617.61, -23004.24, -21161.87, 0.000, 0.000, 0.000, 10:46:19.887, 1583739979887
63, -25828.42, -30359.12, -19269.17, -15602.25, -18615.96, -20662.38, -23201.36, -21402.22, 0.000, 0.000, 0.000, 10:46:19.887, 1583739979887
64, -25832.07, -30340.57, -19278.54, -15601.18, -18641.53, -20652.92, -23177.57, -21420.73, 0.000, 0.000, 0.000, 10:46:19.887, 1583739979887
65, -25256.62, -30263.57, -19166.53, -15509.03, -18043.47, -20615.88, -22896.46, -21149.35, 0.000, 0.000, 0.000, 10:46:19.887, 1583739979887
66, -24967.21, -30249.44, -19094.11, -15443.51, -17666.01, -20592.77, -22780.18, -20985.09, 0.000, 0.000, 0.000, 10:46:19.888, 1583739979888
67, -25390.20, -30312.14, -19160.47, -15490.25, -18037.41, -20617.90, -22995.29, -21160.71, 0.000, 0.000, 0.000, 10:46:19.888, 1583739979888
68, -25822.97, -30340.90, -19267.25, -15608.83, -18608.21, -20667.07, -23196.21, -21403.56, -0.002, -0.016, 0.970, 10:46:19.888, 1583739979888
69, -25832.04, -30330.53, -19278.02, -15603.39, -18638.31, -20655.43, -23176.21, -21422.18, 0.000, 0.000, 0.000, 10:46:19.888, 1583739979888
70, -25262.90, -30267.26, -19167.27, -15511.04, -18046.42, -20619.17, -22897.19, -21153.62, 0.000, 0.000, 0.000, 10:46:19.889, 1583739979889
71, -24970.96, -30255.63, -19092.41, -15438.80, -17659.87, -20594.25, -22775.09, -20984.58, 0.000, 0.000, 0.000, 10:46:19.889, 1583739979889
72, -25392.81, -30319.31, -19155.20, -15472.41, -18023.06, -20612.02, -22988.59, -21154.63, 0.000, 0.000, 0.000, 10:46:19.889, 1583739979889
73, -25822.21, -30350.70, -19260.36, -15589.89, -18596.09, -20657.95, -23189.26, -21395.13, 0.000, 0.000, 0.000, 10:46:19.889, 1583739979889
74, -25835.33, -30333.80, -19279.99, -15600.56, -18637.31, -20656.39, -23177.53, -21423.72, 0.000, 0.000, 0.000, 10:46:19.889, 1583739979889
75, -25268.02, -30270.65, -19176.54, -15519.53, -18053.28, -20627.04, -22904.75, -21160.96, 0.000, 0.000, 0.000, 10:46:19.890, 1583739979890
76, -24970.03, -30262.18, -19099.61, -15445.95, -17665.68, -20598.96, -22782.78, -20987.48, 0.000, 0.000, 0.000, 10:46:19.890, 1583739979890
77, -25387.45, -30316.32, -19159.91, -15477.26, -18024.20, -20614.39, -22992.88, -21151.54, 0.000, 0.000, 0.000, 10:46:19.890, 1583739979890
78, -25820.09, -30342.43, -19270.87, -15600.60, -18606.13, -20665.75, -23198.81, -21397.12, 0.000, 0.000, 0.000, 10:46:19.890, 1583739979890
79, -25831.84, -30330.47, -19286.78, -15605.85, -18649.45, -20658.78, -23183.16, -21422.94, -0.002, -0.016, 0.972, 10:46:19.890, 1583739979890
80, -25267.44, -30268.42, -19176.39, -15516.54, -18060.52, -20624.15, -22907.10, -21158.43, 0.000, 0.000, 0.000, 10:46:19.891, 1583739979891
81, -24967.17, -30250.45, -19099.61, -15446.75, -17668.54, -20600.17, -22785.88, -20990.32, 0.000, 0.000, 0.000, 10:46:19.891, 1583739979891
82, -25380.70, -30308.76, -19158.66, -15478.74, -18024.24, -20616.13, -22994.22, -21155.79, 0.000, 0.000, 0.000, 10:46:19.891, 1583739979891
83, -25817.25, -30342.83, -19264.05, -15597.99, -18600.43, -20665.69, -23195.54, -21398.53, 0.000, 0.000, 0.000, 10:46:19.891, 1583739979891
84, -25840.56, -30335.27, -19285.31, -15609.47, -18650.68, -20663.99, -23186.78, -21430.45, 0.000, 0.000, 0.000, 10:46:19.891, 1583739979891
85, -25275.51, -30267.77, -19178.71, -15518.37, -18064.54, -20627.89, -22913.26, -21167.21, 0.000, 0.000, 0.000, 10:46:19.891, 1583739979891
86, -24967.54, -30248.12, -19099.70, -15439.15, -17668.00, -20597.15, -22785.39, -20988.98, 0.000, 0.000, 0.000, 10:46:19.892, 1583739979892
87, -25384.81, -30307.94, -19161.41, -15479.01, -18022.17, -20617.38, -22993.93, -21153.20, 0.000, 0.000, 0.000, 10:46:19.892, 1583739979892
88, -25820.40, -30345.08, -19270.78, -15606.03, -18601.77, -20670.67, -23197.56, -21398.29, 0.000, 0.000, 0.000, 10:46:19.892, 1583739979892
89, -25846.35, -30343.70, -19288.86, -15613.14, -18654.70, -20666.96, -23189.84, -21431.05, 0.000, -0.020, 0.976, 10:46:19.892, 1583739979892
90, -25281.50, -30268.66, -19175.72, -15518.44, -18066.40, -20626.23, -22911.03, -21165.04, 0.000, 0.000, 0.000, 10:46:19.892, 1583739979892
91, -24969.71, -30244.03, -19096.90, -15445.43, -17664.22, -20598.76, -22778.75, -20986.97, 0.000, 0.000, 0.000, 10:46:19.892, 1583739979892
92, -25382.73, -30303.51, -19157.34, -15474.16, -18012.64, -20614.16, -22987.07, -21148.06, 0.000, 0.000, 0.000, 10:46:19.893, 1583739979893
93, -25812.91, -30335.63, -19261.53, -15584.57, -18585.14, -20656.34, -23184.62, -21387.04, 0.000, 0.000, 0.000, 10:46:19.893, 1583739979893
94, -25840.76, -30333.95, -19282.58, -15597.70, -18643.28, -20652.81, -23175.14, -21421.84, 0.000, 0.000, 0.000, 10:46:19.893, 1583739979893
95, -25285.46, -30270.99, -19179.63, -15513.25, -18065.48, -20619.60, -22905.91, -21163.14, 0.000, 0.000, 0.000, 10:46:19.893, 1583739979893
96, -24970.41, -30250.78, -19101.53, -15439.85, -17662.66, -20594.32, -22777.97, -20985.56, 0.000, 0.000, 0.000, 10:46:19.893, 1583739979893
97, -25375.58, -30314.48, -19159.02, -15471.79, -18005.58, -20610.39, -22983.38, -21142.71, 0.000, 0.000, 0.000, 10:46:19.893, 1583739979893
98, -25807.97, -30343.43, -19265.55, -15598.03, -18587.51, -20661.44, -23187.25, -21387.65, 0.000, 0.000, 0.000, 10:46:19.893, 1583739979893
99, -25836.13, -30330.18, -19284.53, -15607.60, -18650.72, -20656.48, -23181.78, -21423.54, 0.002, -0.026, 0.972, 10:46:19.894, 1583739979894
100, -25278.53, -30264.73, -19181.69, -15518.59, -18075.12, -20622.66, -22913.09, -21165.92, 0.000, 0.000, 0.000, 10:46:19.894, 1583739979894
101, -24964.17, -30246.69, -19108.88, -15451.56, -17675.92, -20603.30, -22787.11, -20992.73, 0.000, 0.000, 0.000, 10:46:19.894, 1583739979894
102, -25374.84, -30313.79, -19169.44, -15483.99, -18017.38, -20621.85, -22994.47, -21152.15, 0.000, 0.000, 0.000, 10:46:19.894, 1583739979894
103, -25806.56, -30342.13, -19268.63, -15597.99, -18594.59, -20665.39, -23192.33, -21389.32, 0.000, 0.000, 0.000, 10:46:19.894, 1583739979894
104, -25837.88, -30330.22, -19285.13, -15603.44, -18659.39, -20656.39, -23183.21, -21423.61, 0.000, 0.000, 0.000, 10:46:19.894, 1583739979894
105, -25288.07, -30260.48, -19178.73, -15514.88, -18080.86, -20621.07, -22909.17, -21163.55, 0.000, 0.000, 0.000, 10:46:19.894, 1583739979894
106, -24964.60, -30238.31, -19097.46, -15442.39, -17667.20, -20595.43, -22772.04, -20981.16, 0.000, 0.000, 0.000, 10:46:19.895, 1583739979895
107, -25364.58, -30309.37, -19155.15, -15471.56, -18001.54, -20610.52, -22977.30, -21138.54, 0.000, 0.000, 0.000, 10:46:19.895, 1583739979895
108, -25799.08, -30340.70, -19258.17, -15586.85, -18579.42, -20653.86, -23178.20, -21379.89, 0.000, 0.000, 0.000, 10:46:19.895, 1583739979895
109, -25841.46, -30335.76, -19283.05, -15602.95, -18654.45, -20654.40, -23178.22, -21424.06, 0.004, -0.020, 0.964, 10:46:19.895, 1583739979895
110, -25292.50, -30269.00, -19184.26, -15521.83, -18084.66, -20624.47, -22911.77, -21171.64, 0.000, 0.000, 0.000, 10:46:19.895, 1583739979895
111, -24965.15, -30247.77, -19107.30, -15454.64, -17672.99, -20600.98, -22777.05, -20990.32, 0.000, 0.000, 0.000, 10:46:19.895, 1583739979895
112, -25368.49, -30315.87, -19170.71, -15491.12, -18010.32, -20624.49, -22986.51, -21152.17, 0.000, 0.000, 0.000, 10:46:19.895, 1583739979895
113, -25807.90, -30346.54, -19274.89, -15607.87, -18594.30, -20672.03, -23191.97, -21394.33, 0.000, 0.000, 0.000, 10:46:19.896, 1583739979896
114, -25848.83, -30333.33, -19288.79, -15604.07, -18661.83, -20656.74, -23184.26, -21426.54, 0.000, 0.000, 0.000, 10:46:19.896, 1583739979896
115, -25306.71, -30282.25, -19185.48, -15509.94, -18089.15, -20620.22, -22916.93, -21169.27, 0.000, 0.000, 0.000, 10:46:19.897, 1583739979897
116, -24970.52, -30259.23, -19105.09, -15436.61, -17668.27, -20594.43, -22776.34, -20984.11, 0.000, 0.000, 0.000, 10:46:19.898, 1583739979898
117, -25365.45, -30312.45, -19163.29, -15469.62, -17992.19, -20612.46, -22978.98, -21138.85, 0.000, 0.000, 0.000, 10:46:19.899, 1583739979899
118, -25810.27, -30346.67, -19273.01, -15600.27, -18580.36, -20669.39, -23189.38, -21388.74, 0.000, 0.000, 0.000, 10:46:19.899, 1583739979899
119, -25856.16, -30335.27, -19294.16, -15610.50, -18667.35, -20663.36, -23191.10, -21432.26, 0.004, -0.020, 0.962, 10:46:19.899, 1583739979899
120, -25311.14, -30272.67, -19188.08, -15515.49, -18096.33, -20624.24, -22924.80, -21173.34, 0.000, 0.000, 0.000, 10:46:19.899, 1583739979899
121, -24970.12, -30251.99, -19105.42, -15441.25, -17671.04, -20596.86, -22784.16, -20984.46, 0.000, 0.000, 0.000, 10:46:20.353, 1583739980353
122, -25363.95, -30310.87, -19161.17, -15471.45, -17992.51, -20612.80, -22983.29, -21135.85, 0.000, 0.000, 0.000, 10:46:20.354, 1583739980354
123, -25804.35, -30344.08, -19268.43, -15599.97, -18580.04, -20665.53, -23188.68, -21382.42, 0.000, 0.000, 0.000, 10:46:20.354, 1583739980354
124, -25857.08, -30341.87, -19293.38, -15618.35, -18670.10, -20664.66, -23190.94, -21430.23, 0.000, 0.000, 0.000, 10:46:20.354, 1583739980354
125, -25316.50, -30281.52, -19192.01, -15530.93, -18101.36, -20630.12, -22923.75, -21176.42, 0.000, 0.000, 0.000, 10:46:20.354, 1583739980354
126, -24973.51, -30255.57, -19107.50, -15448.99, -17669.59, -20598.23, -22776.58, -20984.64, 0.000, 0.000, 0.000, 10:46:20.354, 1583739980354
127, -25361.76, -30302.53, -19161.50, -15469.04, -17987.39, -20608.82, -22974.87, -21131.70, 0.000, 0.000, 0.000, 10:46:20.354, 1583739980354
128, -25799.48, -30338.22, -19265.68, -15589.65, -18576.65, -20657.39, -23180.46, -21376.40, 0.000, 0.000, 0.000, 10:46:20.355, 1583739980355
129, -25852.92, -30340.64, -19290.43, -15608.09, -18671.46, -20657.30, -23186.51, -21426.81, 0.000, -0.020, 0.968, 10:46:20.355, 1583739980355
130, -25312.28, -30274.92, -19188.17, -15525.32, -18106.16, -20625.07, -22921.62, -21175.55, 0.000, 0.000, 0.000, 10:46:20.358, 1583739980358
131, -24962.45, -30252.46, -19105.91, -15451.45, -17677.21, -20600.73, -22780.65, -20986.72, 0.000, 0.000, 0.000, 10:46:20.359, 1583739980359
132, -25350.92, -30311.98, -19159.60, -15470.29, -17988.82, -20612.42, -22978.46, -21133.35, 0.000, 0.000, 0.000, 10:46:20.359, 1583739980359
133, -25800.21, -30344.32, -19268.39, -15594.66, -18576.96, -20663.34, -23183.94, -21380.49, 0.000, 0.000, 0.000, 10:46:20.359, 1583739980359
134, -25860.63, -30341.69, -19299.03, -15620.83, -18679.40, -20667.34, -23193.76, -21437.83, 0.000, 0.000, 0.000, 10:46:20.359, 1583739980359
135, -25322.71, -30277.18, -19197.26, -15531.58, -18116.11, -20632.58, -22930.14, -21186.77, 0.000, 0.000, 0.000, 10:46:20.359, 1583739980359
136, -24969.49, -30251.45, -19113.54, -15451.42, -17681.73, -20605.63, -22783.42, -20994.32, 0.000, 0.000, 0.000, 10:46:20.360, 1583739980360
137, -25355.39, -30304.16, -19167.76, -15474.98, -17994.49, -20621.18, -22983.85, -21143.07, 0.000, 0.000, 0.000, 10:46:20.360, 1583739980360
138, -25797.11, -30339.07, -19270.31, -15592.35, -18579.75, -20665.82, -23187.52, -21385.12, 0.000, 0.000, 0.000, 10:46:20.360, 1583739980360
139, -25858.55, -30343.34, -19297.29, -15612.69, -18682.30, -20664.34, -23193.46, -21436.75, 0.002, -0.018, 0.978, 10:46:20.361, 1583739980361
140, -25332.64, -30286.66, -19195.68, -15528.38, -18123.06, -20632.76, -22933.54, -21191.11, 0.000, 0.000, 0.000, 10:46:20.361, 1583739980361
141, -24978.48, -30260.66, -19109.09, -15451.11, -17682.02, -20604.89, -22782.33, -20996.71, 0.000, 0.000, 0.000, 10:46:20.361, 1583739980361
142, -25355.86, -30320.63, -19159.27, -15472.37, -17983.19, -20615.71, -22973.77, -21138.29, 0.000, 0.000, 0.000, 10:46:20.361, 1583739980361
143, -25800.60, -30353.53, -19265.88, -15594.79, -18571.73, -20663.54, -23179.50, -21381.39, 0.000, 0.000, 0.000, 10:46:20.361, 1583739980361
144, -25870.11, -30343.99, -19295.79, -15619.42, -18683.22, -20666.00, -23192.15, -21438.50, 0.000, 0.000, 0.000, 10:46:20.361, 1583739980361
145, -25336.86, -30278.88, -19191.30, -15531.47, -18123.35, -20630.17, -22929.96, -21190.50, 0.000, 0.000, 0.000, 10:46:20.362, 1583739980362
146, -24972.22, -30249.11, -19100.35, -15443.76, -17673.46, -20595.70, -22773.65, -20987.46, 0.000, 0.000, 0.000, 10:46:20.362, 1583739980362
147, -25349.87, -30311.02, -19148.58, -15460.95, -17969.21, -20604.51, -22966.21, -21125.71, 0.000, 0.000, 0.000, 10:46:20.362, 1583739980362
148, -25801.27, -30349.87, -19257.39, -15586.85, -18560.17, -20657.91, -23175.47, -21373.32, 0.000, 0.000, 0.000, 10:46:20.362, 1583739980362
149, -25870.49, -30347.65, -19287.74, -15614.48, -18676.71, -20662.80, -23191.30, -21435.14, 0.010, -0.022, 0.978, 10:46:20.362, 1583739980362
150, -25338.05, -30278.92, -19186.87, -15530.04, -18123.04, -20628.45, -22930.90, -21188.16, 0.000, 0.000, 0.000, 10:46:20.362, 1583739980362
151, -24970.56, -30256.73, -19100.04, -15448.30, -17670.42, -20598.52, -22773.92, -20986.10, 0.000, 0.000, 0.000, 10:46:20.363, 1583739980363
152, -25341.96, -30311.67, -19153.34, -15463.58, -17963.20, -20608.73, -22964.90, -21125.10, 0.000, 0.000, 0.000, 10:46:20.363, 1583739980363
153, -25791.95, -30345.11, -19261.15, -15587.82, -18558.25, -20660.41, -23176.41, -21373.99, 0.000, 0.000, 0.000, 10:46:20.363, 1583739980363
154, -25864.68, -30337.35, -19293.22, -15614.24, -18682.86, -20664.05, -23195.12, -21436.04, 0.000, 0.000, 0.000, 10:46:20.364, 1583739980364
155, -25337.02, -30268.33, -19194.18, -15528.74, -18129.50, -20630.95, -22936.46, -21192.16, 0.000, 0.000, 0.000, 10:46:20.367, 1583739980367
156, -24967.52, -30244.39, -19109.67, -15454.20, -17678.31, -20606.86, -22780.79, -20995.42, 0.000, 0.000, 0.000, 10:46:20.368, 1583739980368
157, -25339.61, -30316.25, -19161.59, -15478.45, -17972.84, -20621.23, -22973.19, -21136.41, 0.000, 0.000, 0.000, 10:46:20.368, 1583739980368
158, -25790.49, -30356.44, -19266.78, -15599.48, -18562.86, -20668.48, -23179.59, -21380.45, 0.000, 0.000, 0.000, 10:46:20.368, 1583739980368
159, -25868.84, -30350.23, -19295.37, -15614.79, -18685.92, -20664.66, -23195.88, -21438.72, 0.010, -0.020, 0.972, 10:46:20.368, 1583739980368
160, -25339.32, -30279.59, -19195.50, -15530.53, -18136.41, -20630.93, -22938.59, -21195.42, 0.000, 0.000, 0.000, 10:46:20.368, 1583739980368
161, -24967.95, -30250.56, -19110.43, -15458.33, -17681.71, -20607.59, -22780.67, -20995.91, 0.000, 0.000, 0.000, 10:46:20.368, 1583739980368
162, -25334.16, -30309.84, -19157.77, -15478.94, -17964.34, -20617.52, -22968.29, -21131.18, 0.000, 0.000, 0.000, 10:46:20.369, 1583739980369
163, -25786.87, -30345.60, -19262.31, -15590.36, -18556.37, -20659.83, -23175.25, -21375.35, 0.000, 0.000, 0.000, 10:46:20.369, 1583739980369
164, -25867.61, -30342.27, -19291.03, -15610.73, -18681.99, -20658.76, -23192.10, -21436.35, 0.000, 0.000, 0.000, 10:46:20.369, 1583739980369
165, -25347.41, -30274.81, -19191.50, -15526.21, -18133.46, -20625.41, -22934.61, -21192.49, 0.000, 0.000, 0.000, 10:46:20.369, 1583739980369
166, -24964.37, -30247.74, -19103.99, -15447.60, -17673.68, -20597.22, -22774.50, -20986.99, 0.000, 0.000, 0.000, 10:46:20.369, 1583739980369
167, -25326.00, -30310.35, -19152.31, -15466.49, -17952.61, -20608.49, -22961.86, -21121.62, 0.000, 0.000, 0.000, 10:46:20.370, 1583739980370
168, -25787.07, -30339.32, -19260.41, -15592.62, -18547.41, -20661.97, -23173.60, -21370.99, 0.000, 0.000, 0.000, 10:46:20.370, 1583739980370
169, -25877.13, -30336.48, -19293.94, -15618.82, -18683.13, -20664.99, -23196.71, -21438.81, 0.000, 0.000, 0.000, 10:46:20.370, 1583739980370
170, -25357.72, -30282.34, -19195.59, -15532.14, -18139.78, -20628.78, -22940.96, -21198.42, 0.012, -0.020, 0.968, 10:46:20.370, 1583739980370
171, -24975.77, -30256.15, -19110.83, -15456.23, -17680.07, -20604.51, -22781.84, -20995.93, 0.000, 0.000, 0.000, 10:46:20.370, 1583739980370
172, -25334.03, -30309.34, -19157.12, -15472.15, -17955.69, -20614.92, -22967.49, -21127.40, 0.000, 0.000, 0.000, 10:46:20.370, 1583739980370
173, -25786.80, -30341.08, -19262.04, -15591.01, -18554.63, -20663.76, -23178.56, -21373.45, 0.000, 0.000, 0.000, 10:46:20.370, 1583739980370
174, -25879.90, -30337.26, -19296.97, -15621.10, -18698.60, -20670.60, -23201.87, -21444.80, 0.000, 0.000, 0.000, 10:46:20.371, 1583739980371
175, -25362.68, -30279.33, -19196.42, -15538.80, -18153.13, -20637.39, -22944.36, -21203.38, 0.000, 0.000, 0.000, 10:46:20.371, 1583739980371
176, -24976.53, -30254.96, -19110.58, -15465.15, -17686.33, -20613.02, -22780.18, -20998.95, 0.000, 0.000, 0.000, 10:46:20.371, 1583739980371
177, -25330.22, -30311.09, -19153.32, -15473.67, -17950.48, -20616.78, -22958.82, -21124.74, 0.000, 0.000, 0.000, 10:46:20.371, 1583739980371
178, -25780.23, -30349.71, -19252.74, -15588.51, -18541.71, -20658.69, -23165.44, -21366.08, 0.000, 0.000, 0.000, 10:46:20.371, 1583739980371
179, -25874.29, -30345.26, -19287.68, -15614.01, -18687.29, -20658.71, -23190.58, -21434.03, 0.000, 0.000, 0.000, 10:46:20.372, 1583739980372
180, -25360.91, -30278.70, -19189.91, -15521.25, -18146.84, -20618.63, -22934.30, -21191.62, 0.006, -0.026, 0.968, 10:46:20.372, 1583739980372
181, -24967.79, -30246.31, -19099.21, -15439.76, -17674.73, -20590.22, -22766.79, -20981.89, 0.000, 0.000, 0.000, 10:46:20.372, 1583739980372
182, -25321.66, -30304.29, -19144.58, -15459.61, -17939.55, -20603.44, -22950.17, -21111.96, 0.000, 0.000, 0.000, 10:46:20.372, 1583739980372
183, -25778.40, -30341.29, -19251.71, -15582.76, -18538.34, -20653.39, -23162.29, -21357.96, 0.000, 0.000, 0.000, 10:46:20.372, 1583739980372
184, -25875.74, -30336.59, -19288.33, -15609.23, -18690.51, -20655.40, -23189.11, -21429.42, 0.000, 0.000, 0.000, 10:46:20.373, 1583739980373
185, -25363.26, -30271.73, -19191.72, -15525.01, -18155.29, -20622.63, -22937.56, -21194.24, 0.000, 0.000, 0.000, 10:46:20.373, 1583739980373
186, -24964.35, -30240.39, -19102.94, -15447.78, -17679.83, -20597.82, -22768.20, -20985.13, 0.000, 0.000, 0.000, 10:46:20.373, 1583739980373
187, -25314.80, -30301.03, -19148.18, -15463.76, -17939.26, -20608.24, -22950.61, -21112.12, 0.000, 0.000, 0.000, 10:46:20.373, 1583739980373
188, -25777.51, -30339.90, -19256.29, -15586.25, -18541.49, -20659.09, -23164.25, -21361.05, 0.000, 0.000, 0.000, 10:46:20.373, 1583739980373
189, -25880.93, -30343.25, -19300.19, -15623.65, -18702.98, -20669.30, -23197.36, -21440.73, 0.000, 0.000, 0.000, 10:46:20.373, 1583739980373
190, -25371.06, -30278.99, -19202.90, -15538.08, -18168.84, -20633.95, -22944.00, -21204.56, 0.002, -0.022, 0.974, 10:46:20.374, 1583739980374
191, -24966.21, -30239.12, -19109.36, -15455.09, -17687.20, -20605.42, -22772.65, -20991.10, 0.000, 0.000, 0.000, 10:46:20.374, 1583739980374
192, -25308.70, -30295.42, -19149.95, -15462.18, -17941.83, -20612.11, -22951.17, -21111.71, 0.000, 0.000, 0.000, 10:46:20.374, 1583739980374
193, -25773.37, -30335.70, -19259.80, -15588.37, -18544.37, -20664.95, -23168.95, -21364.38, 0.000, 0.000, 0.000, 10:46:20.374, 1583739980374
194, -25875.81, -30326.78, -19298.74, -15624.67, -18705.82, -20671.76, -23200.28, -21443.48, 0.000, 0.000, 0.000, 10:46:20.374, 1583739980374
195, -25371.29, -30268.49, -19203.28, -15537.01, -18173.87, -20635.69, -22951.29, -21206.48, 0.000, 0.000, 0.000, 10:46:20.375, 1583739980375
196, -24967.93, -30247.52, -19112.28, -15460.79, -17692.88, -20610.01, -22780.05, -20994.12, 0.000, 0.000, 0.000, 10:46:20.375, 1583739980375
197, -25306.42, -30305.99, -19155.18, -15474.89, -17943.51, -20619.62, -22957.61, -21116.43, 0.000, 0.000, 0.000, 10:46:20.375, 1583739980375
198, -25765.01, -30338.25, -19261.64, -15592.22, -18544.66, -20665.69, -23168.68, -21362.59, 0.000, 0.000, 0.000, 10:46:20.375, 1583739980375
199, -25878.65, -30335.21, -19296.84, -15616.43, -18707.92, -20666.51, -23197.44, -21438.03, 0.000, 0.000, 0.000, 10:46:20.375, 1583739980375
200, -25379.64, -30276.26, -19201.31, -15534.37, -18178.63, -20633.10, -22949.03, -21206.04, 0.004, -0.020, 0.974, 10:46:20.376, 1583739980376
201, -24972.42, -30243.07, -19109.89, -15457.10, -17694.11, -20608.29, -22772.89, -20992.69, 0.000, 0.000, 0.000, 10:46:20.376, 1583739980376
202, -25308.57, -30299.20, -19149.01, -15462.15, -17937.14, -20612.76, -22949.68, -21111.80, 0.000, 0.000, 0.000, 10:46:20.376, 1583739980376
203, -25771.43, -30333.60, -19254.71, -15577.49, -18535.18, -20658.02, -23165.84, -21358.25, 0.000, 0.000, 0.000, 10:46:20.376, 1583739980376
204, -25887.88, -30335.25, -19299.41, -15619.15, -18707.02, -20668.81, -23202.38, -21442.41, 0.000, 0.000, 0.000, 10:46:20.376, 1583739980376
205, -25391.89, -30277.07, -19205.58, -15539.65, -18181.78, -20637.12, -22955.40, -21212.97, 0.000, 0.000, 0.000, 10:46:20.377, 1583739980377
206, -24973.92, -30246.04, -19108.04, -15456.34, -17687.76, -20606.72, -22772.87, -20991.75, 0.000, 0.000, 0.000, 10:46:20.377, 1583739980377
207, -25306.60, -30303.91, -19149.77, -15464.32, -17928.94, -20612.40, -22945.58, -21108.23, 0.000, 0.000, 0.000, 10:46:20.377, 1583739980377
208, -25770.69, -30342.47, -19259.04, -15586.41, -18532.23, -20663.34, -23163.16, -21358.57, 0.000, 0.000, 0.000, 10:46:20.377, 1583739980377
209, -25885.91, -30331.67, -19297.47, -15617.81, -18708.68, -20668.01, -23198.76, -21439.50, 0.000, 0.000, 0.000, 10:46:20.378, 1583739980378
210, -25397.41, -30273.67, -19205.51, -15538.57, -18188.64, -20638.55, -22956.31, -21214.02, 0.006, -0.022, 0.976, 10:46:20.378, 1583739980378
211, -24975.86, -30242.15, -19111.68, -15460.70, -17692.81, -20609.85, -22772.94, -20994.54, 0.000, 0.000, 0.000, 10:46:20.378, 1583739980378
212, -25305.46, -30305.97, -19153.10, -15471.90, -17928.94, -20619.95, -22947.57, -21112.23, 0.000, 0.000, 0.000, 10:46:20.378, 1583739980378
213, -25766.33, -30335.67, -19258.69, -15590.18, -18527.63, -20667.56, -23164.27, -21359.21, 0.000, 0.000, 0.000, 10:46:20.378, 1583739980378
214, -25884.19, -30332.17, -19300.22, -15619.98, -18708.54, -20670.04, -23201.49, -21441.04, 0.000, 0.000, 0.000, 10:46:20.379, 1583739980379
215, -25395.80, -30277.09, -19211.37, -15541.48, -18193.00, -20640.07, -22959.02, -21216.59, 0.000, 0.000, 0.000, 10:46:20.379, 1583739980379
216, -24971.84, -30247.10, -19119.30, -15464.90, -17697.80, -20614.41, -22778.06, -20998.03, 0.000, 0.000, 0.000, 10:46:20.379, 1583739980379
217, -25294.55, -30301.68, -19153.54, -15464.30, -17924.11, -20615.10, -22945.52, -21106.51, 0.000, 0.000, 0.000, 10:46:20.379, 1583739980379
218, -25767.85, -30343.34, -19263.89, -15581.15, -18530.51, -20664.66, -23168.39, -21355.93, 0.000, 0.000, 0.000, 10:46:20.379, 1583739980379
219, -25888.77, -30335.81, -19300.89, -15615.64, -18711.36, -20667.36, -23202.18, -21438.76, 0.000, 0.000, 0.000, 10:46:20.380, 1583739980380
220, -25399.96, -30276.49, -19205.94, -15533.37, -18193.78, -20631.71, -22957.07, -21212.90, 0.002, -0.020, 0.970, 10:46:20.380, 1583739980380
221, -24978.83, -30251.05, -19114.56, -15455.31, -17695.41, -20607.23, -22776.31, -20994.37, 0.000, 0.000, 0.000, 10:46:20.380, 1583739980380
222, -25301.32, -30304.05, -19150.46, -15461.24, -17919.42, -20613.13, -22945.81, -21104.18, 0.000, 0.000, 0.000, 10:46:20.380, 1583739980380
223, -25769.95, -30352.04, -19256.23, -15583.26, -18522.24, -20662.11, -23165.66, -21354.65, 0.000, 0.000, 0.000, 10:46:20.380, 1583739980380
224, -25897.65, -30355.41, -19301.78, -15626.69, -18713.30, -20672.86, -23210.12, -21448.42, 0.000, 0.000, 0.000, 10:46:20.381, 1583739980381
225, -25407.09, -30288.76, -19208.69, -15544.34, -18197.54, -20635.80, -22962.64, -21218.04, 0.000, 0.000, 0.000, 10:46:20.381, 1583739980381
226, -24974.03, -30249.26, -19111.77, -15457.93, -17691.00, -20604.87, -22772.83, -20991.33, 0.000, 0.000, 0.000, 10:46:20.381, 1583739980381
227, -25292.47, -30303.22, -19150.48, -15462.11, -17911.57, -20610.74, -22942.10, -21101.41, 0.000, 0.000, 0.000, 10:46:20.381, 1583739980381
228, -25759.83, -30347.10, -19253.28, -15579.34, -18511.58, -20656.34, -23158.78, -21347.35, 0.000, 0.000, 0.000, 10:46:20.381, 1583739980381
229, -25891.57, -30348.21, -19294.76, -15616.63, -18706.53, -20663.00, -23201.47, -21435.93, 0.000, 0.000, 0.000, 10:46:20.381, 1583739980381
230, -25409.95, -30289.16, -19202.16, -15532.25, -18197.40, -20628.42, -22958.53, -21212.16, -0.002, -0.026, 0.970, 10:46:20.382, 1583739980382
231, -24974.65, -30252.32, -19105.80, -15449.35, -17688.23, -20599.46, -22768.67, -20984.87, 0.000, 0.000, 0.000, 10:46:20.382, 1583739980382
232, -25289.14, -30305.86, -19144.51, -15456.25, -17903.10, -20607.30, -22935.55, -21093.36, 0.000, 0.000, 0.000, 10:46:20.382, 1583739980382
233, -25753.48, -30341.73, -19250.19, -15578.09, -18504.94, -20657.41, -23155.45, -21344.89, 0.000, 0.000, 0.000, 10:46:20.382, 1583739980382
234, -25890.16, -30338.49, -19296.13, -15623.35, -18708.59, -20667.54, -23200.71, -21439.10, 0.000, 0.000, 0.000, 10:46:20.382, 1583739980382
235, -25418.56, -30283.28, -19207.57, -15542.89, -18204.91, -20633.92, -22960.16, -21217.86, 0.000, 0.000, 0.000, 10:46:20.383, 1583739980383
236, -24976.31, -30247.16, -19109.04, -15450.20, -17693.01, -20601.20, -22767.55, -20987.97, 0.000, 0.000, 0.000, 10:46:20.383, 1583739980383
237, -25279.62, -30295.98, -19145.23, -15454.62, -17903.68, -20606.77, -22932.31, -21093.52, 0.000, 0.000, 0.000, 10:46:20.383, 1583739980383
238, -25757.97, -30337.08, -19252.03, -15580.22, -18508.67, -20659.18, -23156.50, -21346.23, 0.000, 0.000, 0.000, 10:46:20.383, 1583739980383
239, -25895.43, -30339.94, -19293.56, -15617.43, -18708.54, -20663.23, -23197.38, -21435.93, 0.000, 0.000, 0.000, 10:46:20.383, 1583739980383
240, -25417.87, -30283.88, -19201.85, -15530.89, -18202.48, -20626.17, -22956.60, -21212.68, -0.004, -0.026, 0.966, 10:46:20.383, 1583739980383
241, -24976.11, -30253.13, -19103.79, -15448.65, -17688.97, -20597.60, -22766.28, -20983.64, 0.000, 0.000, 0.000, 10:46:20.833, 1583739980833
242, -25282.48, -30304.45, -19141.81, -15453.19, -17897.29, -20603.88, -22929.18, -21086.32, 0.000, 0.000, 0.000, 10:46:20.834, 1583739980834
243, -25749.75, -30338.07, -19245.54, -15568.39, -18499.15, -20650.04, -23146.39, -21331.92, 0.000, 0.000, 0.000, 10:46:20.834, 1583739980834
244, -25892.13, -30337.24, -19290.00, -15607.53, -18708.77, -20658.40, -23195.25, -21427.14, 0.000, 0.000, 0.000, 10:46:20.834, 1583739980834
245, -25423.61, -30275.79, -19201.96, -15527.24, -18209.83, -20625.99, -22960.22, -21209.35, 0.000, 0.000, 0.000, 10:46:20.834, 1583739980834
246, -24975.59, -30241.26, -19103.23, -15445.23, -17691.90, -20598.27, -22766.73, -20979.88, 0.000, 0.000, 0.000, 10:46:20.834, 1583739980834
247, -25279.51, -30307.76, -19135.53, -15447.47, -17890.43, -20604.04, -22925.11, -21081.43, 0.000, 0.000, 0.000, 10:46:20.834, 1583739980834
248, -25751.94, -30343.74, -19240.31, -15570.90, -18491.20, -20654.26, -23142.59, -21332.30, 0.000, 0.000, 0.000, 10:46:20.835, 1583739980835
249, -25898.00, -30344.59, -19289.87, -15620.83, -18711.47, -20666.91, -23195.41, -21433.65, 0.000, 0.000, 0.000, 10:46:20.835, 1583739980835
250, -25430.63, -30289.05, -19205.18, -15534.13, -18218.79, -20630.08, -22962.17, -21216.07, -0.002, -0.020, 0.968, 10:46:20.835, 1583739980835
251, -24978.56, -30251.36, -19108.82, -15449.39, -17697.96, -20600.44, -22765.68, -20983.82, 0.000, 0.000, 0.000, 10:46:20.835, 1583739980835
252, -25260.02, -30293.47, -19133.32, -15444.34, -17882.96, -20596.66, -22915.70, -21074.50, 0.000, 0.000, 0.000, 10:46:20.839, 1583739980839
253, -25740.47, -30330.73, -19240.63, -15561.55, -18487.44, -20643.40, -23138.01, -21323.21, 0.000, 0.000, 0.000, 10:46:20.839, 1583739980839
254, -25896.19, -30340.23, -19293.96, -15611.78, -18710.69, -20657.64, -23193.53, -21428.30, 0.000, 0.000, 0.000, 10:46:20.839, 1583739980839
255, -25431.26, -30288.65, -19204.78, -15533.23, -18216.54, -20626.35, -22959.82, -21215.38, 0.000, 0.000, 0.000, 10:46:20.839, 1583739980839
0, -24975.10, -30247.47, -19103.39, -15445.01, -17690.87, -20595.66, -22759.91, -20979.77, 0.000, 0.000, 0.000, 10:46:20.839, 1583739980839
1, -25266.95, -30299.33, -19132.02, -15440.45, -17878.15, -20594.85, -22914.63, -21071.66, 0.000, 0.000, 0.000, 10:46:20.839, 1583739980839
2, -25741.07, -30339.63, -19238.39, -15559.07, -18483.30, -20642.15, -23136.20, -21321.60, 0.000, 0.000, 0.000, 10:46:20.839, 1583739980839
3, -25895.03, -30348.53, -19290.67, -15608.31, -18710.35, -20655.49, -23191.32, -21427.25, 0.000, 0.000, 0.000, 10:46:20.839, 1583739980839
4, -25433.22, -30285.41, -19202.74, -15528.74, -18217.43, -20621.25, -22955.93, -21209.88, 0.002, -0.020, 0.970, 10:46:20.840, 1583739980840
5, -24973.13, -30242.94, -19104.35, -15447.58, -17692.14, -20593.55, -22755.33, -20975.64, 0.000, 0.000, 0.000, 10:46:20.840, 1583739980840
6, -25264.20, -30299.13, -19138.64, -15450.62, -17879.32, -20599.50, -22912.01, -21073.13, 0.000, 0.000, 0.000, 10:46:20.840, 1583739980840
7, -25742.44, -30343.86, -19244.96, -15570.45, -18482.41, -20650.44, -23136.56, -21326.51, 0.000, 0.000, 0.000, 10:46:20.840, 1583739980840
8, -25898.61, -30354.79, -19293.33, -15618.06, -18709.46, -20661.35, -23192.97, -21431.03, 0.000, 0.000, 0.000, 10:46:20.840, 1583739980840
9, -25441.96, -30299.93, -19211.19, -15538.66, -18225.52, -20629.32, -22963.98, -21219.81, 0.000, 0.000, 0.000, 10:46:20.840, 1583739980840
10, -24977.72, -30252.59, -19112.66, -15452.45, -17697.73, -20599.97, -22762.41, -20982.43, 0.000, 0.000, 0.000, 10:46:20.840, 1583739980840
11, -25258.57, -30305.19, -19142.03, -15449.15, -17877.64, -20600.95, -22914.38, -21072.15, 0.000, 0.000, 0.000, 10:46:20.841, 1583739980841
12, -25736.63, -30349.49, -19251.15, -15570.87, -18482.19, -20650.93, -23140.07, -21324.35, 0.000, 0.000, 0.000, 10:46:20.841, 1583739980841
13, -25899.72, -30345.13, -19301.33, -15618.42, -18717.04, -20660.70, -23195.88, -21429.44, 0.000, 0.000, 0.000, 10:46:20.841, 1583739980841
14, -25444.71, -30286.30, -19211.90, -15536.83, -18231.51, -20624.18, -22962.35, -21217.10, 0.000, 0.000, 0.000, 10:46:20.841, 1583739980841
15, -24976.80, -30245.31, -19111.03, -15453.03, -17697.71, -20596.37, -22758.63, -20981.47, 0.000, -0.012, 0.970, 10:46:20.841, 1583739980841
16, -25259.33, -30297.03, -19141.01, -15452.48, -17874.51, -20601.54, -22913.15, -21074.39, 0.000, 0.000, 0.000, 10:46:20.841, 1583739980841
17, -25741.99, -30349.67, -19246.51, -15573.13, -18477.67, -20653.01, -23137.65, -21326.67, 0.000, 0.000, 0.000, 10:46:20.841, 1583739980841
18, -25906.10, -30358.29, -19298.03, -15623.56, -18716.14, -20665.28, -23196.21, -21434.45, 0.000, 0.000, 0.000, 10:46:20.841, 1583739980841
19, -25456.31, -30302.68, -19216.38, -15547.14, -18238.71, -20633.68, -22970.57, -21227.47, 0.000, 0.000, 0.000, 10:46:20.841, 1583739980841
20, -24982.46, -30252.77, -19116.15, -15465.37, -17701.66, -20607.59, -22764.22, -20989.23, 0.000, 0.000, 0.000, 10:46:20.841, 1583739980841
21, -25255.32, -30302.53, -19144.36, -15462.13, -17871.78, -20611.66, -22913.87, -21077.45, 0.000, 0.000, 0.000, 10:46:20.841, 1583739980841
22, -25734.90, -30345.22, -19245.16, -15578.58, -18474.14, -20658.29, -23135.35, -21327.56, 0.000, 0.000, 0.000, 10:46:20.842, 1583739980842
23, -25902.81, -30347.83, -19294.94, -15625.48, -18716.10, -20667.00, -23195.54, -21435.01, 0.000, 0.000, 0.000, 10:46:20.842, 1583739980842
24, -25457.68, -30300.27, -19211.23, -15543.09, -18241.48, -20632.38, -22970.95, -21229.55, 0.000, 0.000, 0.000, 10:46:20.842, 1583739980842
25, -24983.79, -30257.35, -19106.23, -15450.67, -17700.03, -20599.72, -22762.75, -20986.52, 0.002, -0.020, 0.972, 10:46:20.842, 1583739980842
26, -25254.77, -30303.31, -19136.09, -15451.69, -17867.45, -20604.87, -22911.86, -21072.98, 0.000, 0.000, 0.000, 10:46:20.842, 1583739980842
27, -25733.70, -30347.07, -19249.08, -15586.92, -18475.10, -20665.44, -23141.68, -21332.15, 0.000, 0.000, 0.000, 10:46:20.842, 1583739980842
28, -25901.96, -30347.12, -19298.81, -15628.18, -18721.53, -20672.84, -23203.86, -21441.00, 0.000, 0.000, 0.000, 10:46:20.842, 1583739980842
29, -25456.33, -30287.48, -19210.56, -15531.00, -18244.61, -20627.87, -22974.37, -21230.16, 0.000, 0.000, 0.000, 10:46:20.842, 1583739980842
30, -24977.54, -30245.40, -19110.61, -15447.27, -17703.30, -20599.95, -22763.04, -20988.85, 0.000, 0.000, 0.000, 10:46:20.842, 1583739980842
31, -25243.97, -30300.49, -19137.65, -15445.57, -17864.88, -20603.21, -22910.92, -21073.92, 0.000, 0.000, 0.000, 10:46:20.843, 1583739980843
32, -25726.66, -30340.46, -19241.81, -15563.27, -18468.89, -20651.13, -23135.62, -21324.50, 0.000, 0.000, 0.000, 10:46:20.843, 1583739980843
33, -25903.35, -30341.55, -19295.59, -15613.65, -18722.40, -20662.98, -23198.81, -21436.46, 0.000, 0.000, 0.000, 10:46:20.843, 1583739980843
34, -25464.85, -30290.17, -19211.68, -15534.24, -18253.57, -20627.46, -22976.70, -21232.30, 0.000, 0.000, 0.000, 10:46:20.843, 1583739980843
35, -24982.66, -30246.11, -19110.05, -15452.07, -17710.83, -20598.09, -22766.41, -20988.33, 0.002, -0.020, 0.970, 10:46:20.843, 1583739980843
36, -25240.28, -30295.75, -19139.26, -15451.47, -17866.96, -20602.59, -22910.20, -21070.25, 0.000, 0.000, 0.000, 10:46:20.843, 1583739980843
37, -25721.07, -30342.76, -19243.33, -15570.20, -18467.48, -20653.06, -23134.90, -21320.90, 0.000, 0.000, 0.000, 10:46:20.844, 1583739980844
38, -25899.70, -30344.41, -19292.06, -15616.11, -18720.12, -20660.99, -23197.11, -21431.77, 0.000, 0.000, 0.000, 10:46:20.844, 1583739980844
39, -25464.31, -30288.02, -19209.85, -15536.88, -18255.92, -20626.88, -22973.10, -21230.69, 0.000, 0.000, 0.000, 10:46:20.844, 1583739980844
40, -24982.23, -30241.66, -19107.41, -15455.34, -17711.10, -20600.64, -22760.02, -20989.61, 0.000, 0.000, 0.000, 10:46:20.844, 1583739980844
41, -25240.75, -30300.40, -19132.22, -15451.45, -17857.50, -20604.33, -22902.22, -21071.44, 0.000, 0.000, 0.000, 10:46:20.844, 1583739980844
42, -25723.91, -30348.28, -19238.01, -15566.47, -18458.70, -20652.92, -23129.12, -21322.33, 0.000, 0.000, 0.000, 10:46:20.844, 1583739980844
43, -25897.94, -30351.97, -19285.44, -15609.27, -18712.07, -20659.74, -23190.87, -21433.36, 0.000, 0.000, 0.000, 10:46:20.844, 1583739980844
44, -25464.36, -30294.21, -19204.42, -15533.84, -18254.02, -20627.35, -22971.60, -21233.91, 0.000, 0.000, 0.000, 10:46:20.844, 1583739980844
45, -24978.12, -30239.07, -19104.75, -15449.12, -17709.64, -20598.70, -22760.13, -20988.22, 0.002, -0.018, 0.968, 10:46:20.845, 1583739980845
46, -25236.39, -30297.39, -19133.25, -15447.18, -17856.96, -20602.65, -22904.53, -21067.75, 0.000, 0.000, 0.000, 10:46:20.845, 1583739980845
47, -25719.55, -30351.30, -19238.46, -15565.73, -18456.64, -20651.38, -23129.32, -21316.61, 0.000, 0.000, 0.000, 10:46:20.845, 1583739980845
48, -25901.63, -30353.49, -19288.88, -15616.20, -18718.49, -20662.27, -23194.83, -21432.44, 0.000, 0.000, 0.000, 10:46:20.845, 1583739980845
49, -25473.90, -30302.91, -19207.39, -15537.99, -18260.41, -20628.63, -22975.22, -21235.10, 0.000, 0.000, 0.000, 10:46:20.845, 1583739980845
50, -24985.05, -30256.37, -19108.44, -15456.90, -17713.09, -20602.41, -22764.49, -20990.68, 0.000, 0.000, 0.000, 10:46:20.845, 1583739980845
51, -25238.27, -30307.87, -19134.21, -15451.63, -17855.18, -20605.49, -22905.75, -21066.54, 0.000, 0.000, 0.000, 10:46:20.845, 1583739980845
52, -25720.04, -30346.89, -19237.74, -15565.82, -18452.66, -20651.98, -23129.81, -21313.77, 0.000, 0.000, 0.000, 10:46:20.846, 1583739980846
53, -25902.29, -30350.70, -19293.40, -15620.25, -18719.79, -20666.62, -23197.27, -21433.71, 0.000, 0.000, 0.000, 10:46:20.846, 1583739980846
54, -25476.90, -30295.38, -19211.73, -15543.38, -18266.34, -20632.98, -22976.74, -21237.58, 0.000, 0.000, 0.000, 10:46:20.846, 1583739980846
55, -24978.79, -30245.42, -19106.79, -15457.57, -17712.33, -20602.56, -22757.74, -20988.60, 0.004, -0.020, 0.974, 10:46:20.846, 1583739980846
56, -25224.77, -30292.78, -19127.75, -15444.25, -17843.13, -20600.24, -22892.30, -21059.95, 0.000, 0.000, 0.000, 10:46:20.846, 1583739980846
57, -25712.42, -30337.55, -19233.25, -15557.13, -18442.18, -20648.79, -23120.82, -21308.95, 0.000, 0.000, 0.000, 10:46:20.846, 1583739980846
58, -25894.41, -30333.08, -19283.65, -15610.70, -18711.70, -20658.80, -23187.12, -21424.64, 0.000, 0.000, 0.000, 10:46:20.846, 1583739980846
59, -25473.30, -30278.81, -19207.37, -15541.17, -18267.43, -20630.32, -22977.66, -21234.92, 0.000, 0.000, 0.000, 10:46:20.846, 1583739980846
60, -24981.76, -30244.19, -19104.42, -15453.71, -17711.68, -20599.54, -22758.17, -20986.10, 0.000, 0.000, 0.000, 10:46:20.847, 1583739980847
61, -25228.05, -30296.69, -19127.57, -15444.99, -17842.55, -20600.66, -22896.32, -21058.83, 0.000, 0.000, 0.000, 10:46:20.847, 1583739980847
62, -25710.00, -30341.29, -19234.21, -15561.02, -18443.23, -20648.81, -23124.31, -21308.19, 0.000, 0.000, 0.000, 10:46:20.847, 1583739980847
63, -25898.81, -30350.00, -19290.83, -15619.64, -18722.09, -20662.33, -23196.84, -21429.76, 0.000, 0.000, 0.000, 10:46:20.847, 1583739980847
64, -25481.88, -30294.88, -19212.64, -15547.83, -18278.21, -20631.13, -22984.77, -21238.65, 0.000, 0.000, 0.000, 10:46:20.847, 1583739980847
65, -24981.47, -30245.98, -19109.71, -15465.55, -17721.18, -20605.25, -22763.60, -20990.25, 0.002, -0.020, 0.976, 10:46:20.847, 1583739980847
66, -25220.90, -30292.56, -19130.77, -15448.43, -17841.74, -20601.18, -22893.48, -21056.53, 0.000, 0.000, 0.000, 10:46:20.847, 1583739980847
67, -25702.63, -30332.19, -19229.14, -15547.22, -18432.25, -20639.76, -23115.30, -21298.13, 0.000, 0.000, 0.000, 10:46:20.847, 1583739980847
68, -25900.17, -30337.04, -19288.95, -15606.34, -18715.47, -20658.58, -23194.20, -21424.97, 0.000, 0.000, 0.000, 10:46:20.848, 1583739980848
69, -25492.07, -30291.17, -19217.67, -15540.25, -18282.36, -20631.78, -22987.63, -21241.06, 0.000, 0.000, 0.000, 10:46:20.848, 1583739980848
70, -24988.58, -30245.37, -19113.78, -15459.11, -17722.34, -20603.97, -22764.92, -20991.97, 0.000, 0.000, 0.000, 10:46:20.848, 1583739980848
71, -25217.93, -30293.52, -19129.81, -15443.54, -17837.92, -20601.29, -22892.79, -21055.03, 0.000, 0.000, 0.000, 10:46:20.848, 1583739980848
72, -25701.91, -30338.56, -19232.38, -15550.00, -18432.39, -20645.79, -23118.36, -21300.18, 0.000, 0.000, 0.000, 10:46:20.848, 1583739980848
73, -25901.38, -30342.43, -19291.05, -15613.48, -18719.07, -20663.38, -23195.50, -21428.30, 0.000, 0.000, 0.000, 10:46:20.848, 1583739980848
74, -25490.80, -30290.05, -19214.59, -15541.91, -18280.80, -20629.74, -22981.15, -21237.00, 0.000, 0.000, 0.000, 10:46:20.848, 1583739980848
75, -24985.67, -30246.87, -19110.09, -15460.92, -17718.58, -20602.96, -22756.78, -20985.29, 0.004, -0.016, 0.972, 10:46:20.848, 1583739980848
76, -25215.67, -30294.30, -19127.75, -15444.36, -17831.46, -20599.68, -22885.44, -21048.08, 0.000, 0.000, 0.000, 10:46:20.849, 1583739980849
77, -25702.27, -30338.89, -19230.97, -15553.15, -18429.88, -20644.09, -23113.29, -21297.50, 0.000, 0.000, 0.000, 10:46:20.849, 1583739980849
78, -25900.69, -30348.44, -19293.44, -15614.88, -18725.46, -20659.98, -23192.08, -21426.65, 0.000, 0.000, 0.000, 10:46:20.850, 1583739980850
79, -25495.74, -30297.32, -19215.77, -15536.00, -18291.30, -20625.50, -22983.20, -21236.71, 0.000, 0.000, 0.000, 10:46:20.850, 1583739980850
80, -24986.12, -30242.00, -19108.04, -15448.88, -17724.49, -20595.48, -22755.13, -20980.31, 0.000, 0.000, 0.000, 10:46:20.850, 1583739980850
81, -25210.02, -30288.94, -19124.51, -15437.12, -17830.48, -20594.09, -22881.32, -21042.54, 0.000, 0.000, 0.000, 10:46:20.850, 1583739980850
82, -25704.62, -30340.37, -19227.73, -15557.22, -18425.39, -20644.90, -23111.61, -21294.33, 0.000, 0.000, 0.000, 10:46:20.850, 1583739980850
83, -25908.73, -30347.70, -19285.24, -15614.86, -18719.52, -20660.37, -23188.46, -21423.50, 0.000, 0.000, 0.000, 10:46:20.851, 1583739980851
84, -25508.19, -30297.77, -19211.41, -15534.82, -18291.71, -20623.82, -22981.17, -21237.06, 0.000, 0.000, 0.000, 10:46:20.851, 1583739980851
85, -24991.28, -30250.47, -19107.72, -15451.02, -17724.62, -20594.74, -22753.07, -20982.83, 0.002, -0.018, 0.970, 10:46:20.851, 1583739980851
86, -25202.53, -30289.72, -19117.31, -15430.37, -17819.84, -20585.02, -22869.66, -21035.29, 0.000, 0.000, 0.000, 10:46:20.851, 1583739980851
87, -25694.47, -30334.76, -19224.64, -15544.94, -18416.32, -20634.50, -23102.00, -21287.29, 0.000, 0.000, 0.000, 10:46:20.851, 1583739980851
88, -25904.08, -30344.06, -19287.79, -15609.59, -18717.60, -20654.06, -23185.46, -21421.64, 0.000, 0.000, 0.000, 10:46:20.851, 1583739980851
89, -25506.96, -30294.95, -19214.16, -15538.24, -18293.07, -20622.86, -22981.91, -21239.57, 0.000, 0.000, 0.000, 10:46:20.851, 1583739980851
90, -24992.83, -30245.26, -19108.88, -15450.71, -17723.86, -20593.02, -22752.60, -20982.72, 0.000, 0.000, 0.000, 10:46:20.851, 1583739980851
91, -25204.09, -30286.34, -19123.35, -15436.65, -17818.34, -20591.59, -22873.79, -21039.27, 0.000, 0.000, 0.000, 10:46:20.851, 1583739980851
92, -25691.97, -30328.95, -19224.33, -15550.31, -18414.60, -20640.67, -23105.53, -21290.08, 0.000, 0.000, 0.000, 10:46:20.852, 1583739980852
93, -25906.81, -30341.17, -19287.99, -15613.94, -18720.35, -20659.63, -23191.12, -21424.59, 0.000, 0.000, 0.000, 10:46:20.852, 1583739980852
94, -25513.76, -30291.22, -19214.92, -15537.86, -18297.67, -20626.39, -22988.93, -21241.76, 0.000, 0.000, 0.000, 10:46:20.852, 1583739980852
95, -24992.89, -30241.91, -19107.66, -15450.33, -17723.19, -20596.15, -22758.48, -20983.19, 0.004, -0.020, 0.976, 10:46:20.852, 1583739980852
96, -25200.00, -30293.68, -19123.75, -15437.88, -17816.96, -20595.99, -22880.32, -21039.74, 0.000, 0.000, 0.000, 10:46:20.852, 1583739980852
97, -25687.56, -30331.45, -19224.15, -15546.89, -18408.27, -20639.64, -23107.26, -21284.85, 0.000, 0.000, 0.000, 10:46:20.852, 1583739980852
98, -25902.65, -30333.69, -19286.52, -15612.22, -18716.05, -20656.30, -23191.34, -21420.66, 0.000, 0.000, 0.000, 10:46:20.852, 1583739980852
99, -25517.18, -30286.28, -19216.67, -15544.72, -18302.37, -20627.89, -22991.79, -21245.80, 0.000, 0.000, 0.000, 10:46:20.852, 1583739980852
100, -24997.25, -30238.47, -19108.84, -15458.09, -17726.27, -20598.41, -22757.34, -20986.59, 0.000, 0.000, 0.000, 10:46:20.853, 1583739980853
101, -25195.31, -30285.49, -19118.86, -15431.08, -17807.16, -20588.79, -22869.97, -21034.35, 0.000, 0.000, 0.000, 10:46:20.853, 1583739980853
102, -25689.08, -30332.68, -19225.79, -15542.98, -18400.89, -20637.57, -23102.40, -21285.65, 0.000, 0.000, 0.000, 10:46:20.853, 1583739980853
103, -25907.04, -30344.30, -19289.82, -15613.81, -18715.63, -20658.40, -23188.75, -21423.16, 0.000, 0.000, 0.000, 10:46:20.853, 1583739980853
104, -25520.93, -30296.16, -19220.58, -15543.60, -18306.39, -20626.86, -22989.57, -21245.44, 0.000, 0.000, 0.000, 10:46:20.853, 1583739980853
105, -24993.52, -30241.33, -19110.90, -15450.89, -17727.55, -20592.59, -22754.52, -20982.77, 0.000, 0.000, 0.000, 10:46:21.314, 1583739981314
106, -25192.74, -30286.70, -19124.44, -15429.86, -17810.45, -20587.68, -22869.95, -21032.57, 0.004, -0.020, 0.970, 10:46:21.314, 1583739981314
107, -25683.56, -30330.85, -19231.42, -15547.14, -18404.69, -20639.47, -23102.18, -21284.40, 0.000, 0.000, 0.000, 10:46:21.314, 1583739981314
108, -25901.36, -30336.48, -19300.39, -15617.95, -18725.17, -20663.05, -23190.63, -21425.53, 0.000, 0.000, 0.000, 10:46:21.315, 1583739981315
109, -25524.08, -30289.54, -19230.79, -15547.22, -18317.57, -20632.56, -22993.37, -21250.90, 0.000, 0.000, 0.000, 10:46:21.315, 1583739981315
110, -25000.07, -30236.54, -19119.03, -15459.00, -17735.55, -20600.82, -22756.80, -20988.18, 0.000, 0.000, 0.000, 10:46:21.315, 1583739981315
111, -25194.55, -30288.65, -19133.70, -15444.74, -17813.49, -20601.18, -22871.58, -21039.34, 0.000, 0.000, 0.000, 10:46:21.315, 1583739981315
112, -25686.69, -30336.03, -19233.72, -15554.91, -18406.15, -20648.59, -23102.14, -21289.83, 0.000, 0.000, 0.000, 10:46:21.315, 1583739981315
113, -25908.26, -30341.58, -19295.70, -15618.26, -18726.43, -20663.31, -23189.15, -21428.75, 0.000, 0.000, 0.000, 10:46:21.315, 1583739981315
114, -25528.08, -30284.51, -19222.99, -15547.16, -18321.93, -20629.25, -22992.14, -21252.89, 0.000, 0.000, 0.000, 10:46:21.315, 1583739981315
115, -25002.10, -30239.14, -19113.13, -15456.68, -17741.45, -20597.73, -22755.24, -20990.03, 0.000, 0.000, 0.000, 10:46:21.315, 1583739981315
116, -25189.12, -30279.35, -19116.96, -15429.83, -17803.90, -20587.03, -22859.55, -21027.78, 0.004, -0.018, 0.976, 10:46:21.316, 1583739981316
117, -25675.89, -30324.92, -19215.10, -15536.85, -18387.91, -20630.64, -23087.56, -21271.35, 0.000, 0.000, 0.000, 10:46:21.316, 1583739981316
118, -25909.45, -30344.04, -19282.98, -15611.75, -18715.47, -20655.96, -23181.96, -21417.87, 0.000, 0.000, 0.000, 10:46:21.316, 1583739981316
119, -25538.07, -30297.65, -19212.02, -15538.82, -18314.97, -20621.99, -22986.51, -21244.88, 0.000, 0.000, 0.000, 10:46:21.316, 1583739981316
120, -24999.89, -30244.26, -19100.62, -15446.35, -17730.01, -20587.61, -22745.63, -20978.59, 0.000, 0.000, 0.000, 10:46:21.316, 1583739981316
121, -25185.03, -30284.31, -19111.54, -15430.50, -17794.58, -20585.55, -22856.71, -21023.65, 0.000, 0.000, 0.000, 10:46:21.316, 1583739981316
122, -25677.19, -30325.97, -19215.48, -15540.00, -18383.01, -20633.34, -23091.59, -21274.37, 0.000, 0.000, 0.000, 10:46:21.319, 1583739981319
123, -25909.58, -30341.75, -19286.18, -15609.14, -18715.83, -20656.61, -23185.04, -21422.34, 0.000, 0.000, 0.000, 10:46:21.319, 1583739981319
124, -25539.28, -30291.08, -19215.50, -15534.51, -18315.96, -20620.98, -22986.71, -21249.11, 0.000, 0.000, 0.000, 10:46:21.320, 1583739981320
125, -25005.72, -30231.74, -19107.77, -15447.54, -17729.83, -20593.31, -22749.36, -20986.39, 0.000, 0.000, 0.000, 10:46:21.320, 1583739981320
126, -25184.49, -30286.12, -19119.57, -15434.91, -17792.97, -20594.49, -22859.38, -21028.95, 0.002, -0.016, 0.974, 10:46:21.320, 1583739981320
127, -25676.30, -30334.40, -19224.24, -15550.26, -18386.99, -20643.96, -23093.84, -21278.99, 0.000, 0.000, 0.000, 10:46:21.320, 1583739981320
128, -25908.78, -30342.29, -19290.61, -15621.39, -18721.51, -20663.88, -23186.63, -21425.35, 0.000, 0.000, 0.000, 10:46:21.320, 1583739981320
129, -25542.81, -30290.17, -19222.86, -15545.84, -18331.07, -20628.67, -22995.45, -21256.20, 0.000, 0.000, 0.000, 10:46:21.320, 1583739981320
130, -25002.37, -30234.64, -19113.80, -15456.30, -17742.95, -20598.92, -22754.86, -20991.86, 0.000, 0.000, 0.000, 10:46:21.321, 1583739981321
131, -25168.62, -30271.66, -19120.89, -15432.78, -17793.75, -20593.04, -22857.09, -21026.08, 0.000, 0.000, 0.000, 10:46:21.321, 1583739981321
132, -25657.97, -30311.56, -19219.13, -15533.70, -18377.09, -20635.49, -23086.33, -21270.39, 0.000, 0.000, 0.000, 10:46:21.321, 1583739981321
133, -25897.45, -30323.92, -19284.55, -15607.64, -18714.04, -20657.41, -23179.85, -21417.87, 0.000, 0.000, 0.000, 10:46:21.321, 1583739981321
134, -25542.99, -30278.46, -19218.99, -15544.01, -18328.16, -20627.13, -22991.94, -21253.36, 0.000, 0.000, 0.000, 10:46:21.321, 1583739981321
135, -25002.46, -30222.35, -19104.79, -15452.10, -17731.88, -20592.88, -22747.32, -20983.91, 0.000, 0.000, 0.000, 10:46:21.321, 1583739981321
136, -25173.56, -30274.34, -19110.25, -15427.75, -17778.49, -20586.31, -22848.87, -21017.54, 0.004, -0.020, 0.968, 10:46:21.322, 1583739981322
137, -25666.26, -30321.35, -19212.44, -15534.66, -18366.56, -20631.98, -23083.79, -21264.53, 0.000, 0.000, 0.000, 10:46:21.322, 1583739981322
138, -25898.05, -30330.22, -19276.84, -15601.90, -18705.93, -20648.36, -23175.63, -21407.65, 0.000, 0.000, 0.000, 10:46:21.322, 1583739981322
139, -25548.58, -30294.59, -19216.22, -15537.57, -18330.42, -20619.39, -22991.83, -21247.99, 0.000, 0.000, 0.000, 10:46:21.322, 1583739981322
140, -25006.44, -30238.20, -19105.38, -15445.90, -17739.15, -20585.93, -22747.30, -20979.32, 0.000, 0.000, 0.000, 10:46:21.322, 1583739981322
141, -25171.82, -30278.54, -19113.02, -15427.33, -17785.15, -20582.80, -22849.94, -21014.89, 0.000, 0.000, 0.000, 10:46:21.322, 1583739981322
142, -25664.14, -30324.25, -19212.58, -15535.51, -18368.64, -20628.74, -23080.46, -21261.13, 0.000, 0.000, 0.000, 10:46:21.323, 1583739981323
143, -25905.49, -30335.50, -19282.71, -15610.93, -18715.27, -20654.24, -23178.71, -21414.22, 0.000, 0.000, 0.000, 10:46:21.323, 1583739981323
144, -25558.55, -30289.45, -19223.48, -15548.83, -18342.58, -20627.89, -23000.97, -21258.90, 0.000, 0.000, 0.000, 10:46:21.323, 1583739981323
145, -25009.79, -30230.60, -19112.89, -15460.28, -17750.57, -20596.55, -22756.29, -20989.67, 0.000, 0.000, 0.000, 10:46:21.324, 1583739981324
146, -25168.87, -30273.98, -19119.77, -15441.25, -17789.73, -20594.72, -22855.71, -21022.80, 0.000, -0.020, 0.970, 10:46:21.324, 1583739981324
147, -25664.99, -30326.15, -19222.48, -15549.75, -18375.64, -20641.90, -23092.03, -21272.87, 0.000, 0.000, 0.000, 10:46:21.324, 1583739981324
148, -25907.88, -30335.83, -19287.28, -15613.81, -18719.99, -20657.57, -23185.66, -21418.16, 0.000, 0.000, 0.000, 10:46:21.324, 1583739981324
149, -25564.11, -30289.83, -19222.50, -15544.23, -18346.56, -20623.28, -23002.00, -21257.87, 0.000, 0.000, 0.000, 10:46:21.324, 1583739981324
150, -25013.79, -30228.41, -19112.33, -15456.75, -17749.05, -20593.98, -22754.66, -20987.97, 0.000, 0.000, 0.000, 10:46:21.324, 1583739981324
151, -25162.74, -30264.35, -19114.00, -15428.36, -17775.83, -20585.82, -22846.54, -21011.91, 0.000, 0.000, 0.000, 10:46:21.324, 1583739981324
152, -25662.30, -30320.61, -19213.60, -15531.27, -18356.53, -20629.03, -23079.67, -21257.67, 0.000, 0.000, 0.000, 10:46:21.325, 1583739981325
153, -25914.66, -30336.90, -19282.49, -15609.81, -18711.18, -20655.60, -23181.48, -21414.83, 0.000, 0.000, 0.000, 10:46:21.325, 1583739981325
154, -25571.67, -30291.75, -19216.33, -15541.50, -18339.56, -20622.48, -22998.85, -21257.00, 0.000, 0.000, 0.000, 10:46:21.325, 1583739981325
155, -25013.39, -30235.81, -19102.40, -15451.40, -17740.85, -20590.40, -22748.53, -20985.70, 0.000, 0.000, 0.000, 10:46:21.326, 1583739981326
156, -25159.41, -30273.87, -19104.37, -15430.10, -17768.41, -20584.93, -22840.08, -21011.27, -0.002, -0.020, 0.970, 10:46:21.326, 1583739981326
157, -25660.56, -30323.58, -19204.48, -15538.06, -18350.40, -20631.04, -23072.95, -21257.60, 0.000, 0.000, 0.000, 10:46:21.326, 1583739981326
158, -25916.13, -30344.17, -19279.07, -15613.74, -18714.73, -20658.06, -23179.32, -21416.08, 0.000, 0.000, 0.000, 10:46:21.327, 1583739981327
159, -25578.38, -30296.29, -19218.61, -15539.29, -18352.19, -20624.07, -23003.79, -21258.45, 0.000, 0.000, 0.000, 10:46:21.327, 1583739981327
160, -25023.94, -30232.54, -19107.59, -15447.60, -17752.07, -20591.30, -22752.76, -20984.35, 0.000, 0.000, 0.000, 10:46:21.327, 1583739981327
161, -25165.83, -30280.51, -19109.73, -15423.69, -17771.74, -20586.67, -22843.53, -21007.53, 0.000, 0.000, 0.000, 10:46:21.327, 1583739981327
162, -25665.88, -30335.25, -19212.98, -15533.57, -18354.04, -20634.68, -23080.79, -21256.87, 0.000, 0.000, 0.000, 10:46:21.327, 1583739981327
163, -25915.33, -30344.30, -19287.41, -15614.41, -18717.04, -20660.83, -23186.76, -21415.47, 0.000, 0.000, 0.000, 10:46:21.327, 1583739981327
164, -25582.40, -30302.62, -19226.25, -15546.71, -18358.78, -20630.08, -23011.95, -21264.58, 0.000, 0.000, 0.000, 10:46:21.328, 1583739981328
165, -25029.77, -30251.32, -19115.84, -15456.45, -17762.64, -20601.00, -22763.31, -20995.75, 0.000, 0.000, 0.000, 10:46:21.328, 1583739981328
166, -25166.41, -30286.93, -19114.32, -15427.31, -17777.88, -20593.64, -22850.90, -21016.50, 0.002, -0.022, 0.976, 10:46:21.328, 1583739981328
167, -25660.85, -30332.70, -19215.15, -15536.50, -18360.88, -20642.08, -23090.07, -21265.49, 0.000, 0.000, 0.000, 10:46:21.328, 1583739981328
168, -25911.37, -30339.81, -19282.56, -15609.09, -18721.06, -20661.19, -23188.71, -21421.89, 0.000, 0.000, 0.000, 10:46:21.328, 1583739981328
169, -25588.19, -30305.77, -19224.80, -15548.43, -18367.88, -20631.08, -23015.12, -21273.85, 0.000, 0.000, 0.000, 10:46:21.329, 1583739981329
170, -25030.13, -30252.35, -19115.46, -15464.25, -17765.28, -20601.87, -22763.04, -21001.45, 0.000, 0.000, 0.000, 10:46:21.329, 1583739981329
171, -25163.06, -30290.75, -19116.02, -15440.03, -17773.75, -20595.59, -22846.90, -21019.76, 0.000, 0.000, 0.000, 10:46:21.329, 1583739981329
172, -25658.06, -30341.42, -19213.31, -15537.84, -18348.61, -20637.79, -23081.46, -21262.74, 0.000, 0.000, 0.000, 10:46:21.329, 1583739981329
173, -25909.38, -30350.85, -19282.11, -15609.61, -18714.00, -20656.92, -23183.59, -21418.20, 0.000, 0.000, 0.000, 10:46:21.329, 1583739981329
174, -25586.87, -30304.34, -19225.38, -15547.22, -18365.02, -20626.90, -23010.70, -21270.52, 0.000, 0.000, 0.000, 10:46:21.329, 1583739981329
175, -25026.58, -30243.45, -19114.61, -15459.83, -17763.04, -20597.60, -22758.68, -20996.54, 0.000, 0.000, 0.000, 10:46:21.329, 1583739981329
176, -25149.47, -30278.28, -19116.69, -15437.08, -17770.15, -20593.15, -22843.41, -21012.79, 0.000, -0.018, 0.972, 10:46:21.330, 1583739981330
177, -25643.84, -30321.06, -19209.92, -15530.77, -18340.92, -20629.07, -23074.20, -21249.94, 0.000, 0.000, 0.000, 10:46:21.330, 1583739981330
178, -25906.88, -30335.81, -19278.60, -15608.02, -18713.35, -20652.07, -23180.10, -21408.30, 0.000, 0.000, 0.000, 10:46:21.330, 1583739981330
179, -25587.99, -30300.85, -19222.61, -15547.18, -18372.08, -20624.33, -23010.16, -21263.13, 0.000, 0.000, 0.000, 10:46:21.330, 1583739981330
180, -25024.25, -30242.87, -19109.11, -15456.50, -17763.85, -20592.95, -22756.27, -20987.86, 0.000, 0.000, 0.000, 10:46:21.330, 1583739981330
181, -25144.68, -30279.17, -19108.04, -15427.35, -17760.76, -20584.55, -22837.85, -21001.41, 0.000, 0.000, 0.000, 10:46:21.331, 1583739981331
182, -25638.50, -30324.81, -19203.99, -15529.32, -18330.42, -20625.61, -23065.81, -21242.11, 0.000, 0.000, 0.000, 10:46:21.331, 1583739981331
183, -25903.75, -30338.38, -19277.42, -15611.11, -18708.07, -20652.43, -23173.66, -21405.84, 0.000, 0.000, 0.000, 10:46:21.331, 1583739981331
184, -25583.45, -30297.41, -19216.87, -15538.87, -18364.21, -20617.45, -23000.95, -21259.35, 0.000, 0.000, 0.000, 10:46:21.332, 1583739981332
185, -25017.97, -30237.01, -19106.56, -15448.77, -17758.71, -20586.89, -22748.31, -20985.09, 0.000, 0.000, 0.000, 10:46:21.332, 1583739981332
186, -25138.60, -30273.38, -19106.00, -15422.26, -17752.78, -20581.08, -22830.83, -20998.05, 0.004, -0.018, 0.970, 10:46:21.332, 1583739981332
187, -25638.37, -30333.73, -19209.51, -15528.40, -18329.70, -20630.70, -23072.65, -21247.25, 0.000, 0.000, 0.000, 10:46:21.332, 1583739981332
188, -25904.98, -30350.23, -19284.48, -15615.46, -18713.80, -20661.10, -23184.95, -21414.71, 0.000, 0.000, 0.000, 10:46:21.332, 1583739981332
189, -25593.69, -30306.35, -19227.73, -15552.66, -18378.34, -20631.35, -23017.31, -21274.10, 0.000, 0.000, 0.000, 10:46:21.332, 1583739981332
190, -25030.40, -30248.41, -19116.48, -15462.69, -17771.98, -20601.80, -22765.18, -21001.70, 0.000, 0.000, 0.000, 10:46:21.333, 1583739981333
191, -25144.17, -30283.84, -19119.75, -15441.88, -17765.19, -20600.64, -22846.32, -21015.15, 0.000, 0.000, 0.000, 10:46:21.333, 1583739981333
192, -25639.80, -30339.45, -19217.58, -15544.90, -18336.63, -20645.86, -23081.62, -21259.30, 0.000, 0.000, 0.000, 10:46:21.333, 1583739981333
193, -25908.62, -30352.80, -19291.79, -15628.27, -18722.18, -20673.04, -23192.33, -21424.68, 0.000, 0.000, 0.000, 10:46:21.334, 1583739981334
194, -25600.59, -30310.51, -19234.81, -15564.68, -18392.27, -20641.77, -23026.99, -21283.15, 0.000, 0.000, 0.000, 10:46:21.334, 1583739981334
195, -25029.91, -30254.61, -19120.26, -15468.73, -17780.48, -20607.82, -22768.83, -21004.29, 0.000, 0.000, 0.000, 10:46:21.334, 1583739981334
196, -25136.82, -30294.41, -19118.72, -15439.62, -17763.73, -20600.87, -22844.46, -21010.24, 0.000, 0.000, 0.000, 10:46:21.334, 1583739981334
197, -25632.22, -30336.70, -19211.86, -15536.81, -18327.25, -20640.81, -23074.35, -21249.67, 0.000, -0.022, 0.974, 10:46:21.334, 1583739981334
198, -25907.21, -30347.39, -19281.49, -15615.46, -18708.39, -20662.64, -23180.79, -21412.75, 0.000, 0.000, 0.000, 10:46:21.334, 1583739981334
199, -25603.34, -30305.54, -19226.05, -15549.53, -18381.13, -20628.13, -23016.13, -21272.27, 0.000, 0.000, 0.000, 10:46:21.334, 1583739981334
200, -25029.73, -30237.15, -19109.47, -15454.98, -17767.56, -20591.86, -22753.83, -20992.58, 0.000, 0.000, 0.000, 10:46:21.335, 1583739981335
201, -25126.53, -30278.28, -19104.30, -15423.62, -17745.14, -20584.53, -22827.81, -20997.47, 0.000, 0.000, 0.000, 10:46:21.335, 1583739981335
202, -25619.55, -30323.96, -19202.25, -15522.44, -18311.64, -20627.35, -23064.74, -21239.99, 0.000, 0.000, 0.000, 10:46:21.335, 1583739981335
203, -25892.84, -30327.65, -19272.88, -15604.87, -18699.40, -20651.45, -23172.25, -21403.45, 0.000, 0.000, 0.000, 10:46:21.335, 1583739981335
204, -25596.08, -30286.41, -19216.58, -15543.67, -18374.43, -20618.70, -23004.97, -21264.22, 0.000, 0.000, 0.000, 10:46:21.335, 1583739981335
205, -25025.19, -30230.62, -19103.16, -15451.40, -17761.63, -20584.97, -22744.93, -20985.43, 0.000, 0.000, 0.000, 10:46:21.335, 1583739981335
206, -25120.63, -30264.30, -19101.44, -15426.35, -17733.40, -20581.06, -22815.41, -20988.94, 0.000, 0.000, 0.000, 10:46:21.336, 1583739981336
207, -25618.61, -30312.76, -19199.77, -15529.10, -18301.47, -20627.89, -23053.12, -21232.95, 0.004, -0.020, 0.974, 10:46:21.336, 1583739981336
208, -25891.54, -30334.04, -19274.96, -15613.12, -18699.00, -20656.48, -23167.96, -21402.91, 0.000, 0.000, 0.000, 10:46:21.336, 1583739981336
209, -25596.77, -30288.76, -19220.02, -15547.72, -18379.08, -20622.75, -23007.83, -21266.10, 0.000, 0.000, 0.000, 10:46:21.336, 1583739981336
210, -25025.93, -30229.46, -19109.47, -15461.33, -17768.36, -20593.53, -22749.00, -20989.07, 0.000, 0.000, 0.000, 10:46:21.337, 1583739981337
211, -25117.37, -30271.82, -19106.67, -15430.17, -17736.22, -20586.56, -22817.73, -20990.32, 0.000, 0.000, 0.000, 10:46:21.337, 1583739981337
212, -25615.14, -30321.95, -19204.21, -15526.01, -18299.06, -20629.47, -23052.47, -21232.23, 0.000, 0.000, 0.000, 10:46:21.337, 1583739981337
213, -25899.01, -30334.47, -19284.15, -15619.69, -18701.79, -20662.62, -23171.29, -21408.30, 0.000, 0.000, 0.000, 10:46:21.337, 1583739981337
214, -25613.51, -30296.92, -19230.99, -15558.69, -18390.57, -20631.60, -23016.39, -21277.54, 0.000, 0.000, 0.000, 10:46:21.337, 1583739981337
215, -25038.36, -30235.34, -19112.89, -15460.48, -17771.74, -20594.43, -22752.38, -20995.08, 0.000, 0.000, 0.000, 10:46:21.337, 1583739981337
216, -25122.44, -30272.02, -19104.01, -15427.26, -17731.21, -20585.38, -22815.25, -20991.04, 0.000, 0.000, 0.000, 10:46:21.338, 1583739981338
217, -25611.63, -30327.16, -19203.30, -15533.66, -18298.57, -20631.84, -23052.65, -21234.36, 0.004, -0.022, 0.974, 10:46:21.338, 1583739981338
218, -25897.11, -30339.94, -19286.38, -15631.83, -18708.88, -20666.98, -23174.51, -21412.10, 0.000, 0.000, 0.000, 10:46:21.338, 1583739981338
219, -25616.51, -30294.73, -19231.73, -15555.90, -18397.36, -20626.50, -23016.42, -21276.83, 0.000, 0.000, 0.000, 10:46:21.338, 1583739981338
220, -25037.17, -30240.72, -19112.66, -15451.00, -17776.48, -20586.69, -22751.62, -20992.29, 0.000, 0.000, 0.000, 10:46:21.338, 1583739981338
221, -25115.36, -30275.97, -19106.31, -15421.85, -17731.84, -20582.29, -22815.97, -20989.83, 0.000, 0.000, 0.000, 10:46:21.338, 1583739981338
222, -25610.76, -30324.05, -19202.70, -15519.40, -18291.97, -20624.13, -23050.50, -21229.51, 0.000, 0.000, 0.000, 10:46:21.339, 1583739981339
223, -25890.61, -30341.17, -19278.83, -15604.96, -18697.66, -20650.15, -23166.67, -21401.73, 0.000, 0.000, 0.000, 10:46:21.339, 1583739981339
224, -25613.96, -30304.29, -19229.12, -15551.45, -18398.39, -20623.64, -23015.48, -21279.11, 0.000, 0.000, 0.000, 10:46:21.339, 1583739981339
225, -25031.96, -30240.43, -19111.23, -15456.37, -17776.07, -20589.33, -22748.24, -20995.66, 0.000, 0.000, 0.000, 10:46:21.795, 1583739981795
226, -25100.47, -30268.33, -19098.69, -15417.65, -17720.60, -20576.70, -22805.24, -20982.68, 0.000, 0.000, 0.000, 10:46:21.795, 1583739981795
227, -25600.73, -30319.98, -19199.50, -15521.14, -18283.77, -20625.63, -23046.19, -21227.83, 0.004, -0.026, 0.966, 10:46:21.796, 1583739981796
228, -25883.45, -30329.84, -19273.89, -15608.27, -18692.07, -20652.54, -23162.73, -21400.16, 0.000, 0.000, 0.000, 10:46:21.796, 1583739981796
229, -25610.67, -30295.64, -19226.28, -15554.15, -18394.68, -20625.79, -23013.15, -21278.68, 0.000, 0.000, 0.000, 10:46:21.796, 1583739981796
230, -25032.59, -30236.21, -19112.04, -15464.61, -17778.24, -20594.27, -22748.85, -20998.39, 0.000, 0.000, 0.000, 10:46:21.796, 1583739981796
231, -25098.86, -30262.63, -19097.87, -15425.85, -17719.10, -20583.10, -22803.92, -20985.09, 0.000, 0.000, 0.000, 10:46:21.797, 1583739981797
232, -25598.71, -30318.89, -19194.47, -15521.18, -18279.64, -20625.74, -23044.67, -21224.84, 0.000, 0.000, 0.000, 10:46:21.797, 1583739981797
233, -25886.38, -30334.80, -19274.49, -15616.36, -18697.70, -20658.02, -23169.13, -21402.89, 0.000, 0.000, 0.000, 10:46:21.797, 1583739981797
234, -25613.53, -30290.68, -19224.91, -15553.19, -18404.07, -20624.29, -23017.80, -21275.62, 0.000, 0.000, 0.000, 10:46:21.797, 1583739981797
235, -25031.09, -30219.36, -19106.07, -15450.06, -17777.84, -20585.11, -22747.84, -20987.55, 0.000, 0.000, 0.000, 10:46:21.802, 1583739981802
236, -25091.20, -30257.27, -19092.77, -15413.74, -17712.33, -20574.36, -22801.15, -20972.98, 0.000, 0.000, 0.000, 10:46:21.802, 1583739981802
237, -25592.05, -30316.81, -19192.84, -15512.24, -18270.52, -20618.16, -23043.35, -21215.45, -0.002, -0.024, 0.974, 10:46:21.802, 1583739981802
238, -25883.90, -30330.36, -19275.23, -15605.03, -18692.61, -20650.37, -23169.17, -21394.78, 0.000, 0.000, 0.000, 10:46:21.803, 1583739981803
239, -25623.61, -30303.73, -19229.94, -15551.38, -18408.81, -20622.41, -23027.28, -21276.51, 0.000, 0.000, 0.000, 10:46:21.803, 1583739981803
240, -25044.93, -30239.47, -19116.66, -15461.48, -17788.68, -20590.49, -22762.81, -20996.36, 0.000, 0.000, 0.000, 10:46:21.803, 1583739981803
241, -25099.58, -30272.13, -19101.29, -15419.78, -17714.70, -20577.17, -22811.29, -20977.69, 0.000, 0.000, 0.000, 10:46:21.803, 1583739981803
242, -25596.86, -30327.05, -19196.82, -15513.32, -18271.37, -20619.95, -23049.61, -21216.97, 0.000, 0.000, 0.000, 10:46:21.803, 1583739981803
243, -25897.60, -30344.06, -19282.09, -15614.64, -18701.62, -20659.27, -23178.58, -21402.78, 0.000, 0.000, 0.000, 10:46:21.803, 1583739981803
244, -25638.14, -30303.64, -19234.90, -15560.59, -18418.35, -20629.97, -23030.59, -21283.93, 0.000, 0.000, 0.000, 10:46:21.804, 1583739981804
245, -25048.86, -30232.90, -19114.45, -15459.11, -17791.63, -20589.11, -22757.34, -20994.08, 0.000, 0.000, 0.000, 10:46:21.804, 1583739981804
246, -25094.64, -30265.38, -19097.93, -15418.39, -17716.10, -20577.08, -22807.18, -20975.01, 0.000, 0.000, 0.000, 10:46:21.804, 1583739981804
247, -25590.15, -30320.07, -19192.86, -15508.13, -18266.98, -20617.23, -23045.34, -21213.88, 0.004, -0.026, 0.970, 10:46:21.804, 1583739981804
248, -25888.57, -30335.16, -19274.15, -15603.64, -18693.86, -20652.32, -23168.97, -21398.71, 0.000, 0.000, 0.000, 10:46:21.804, 1583739981804
249, -25629.61, -30299.67, -19232.18, -15553.71, -18418.93, -20628.78, -23027.97, -21287.38, 0.000, 0.000, 0.000, 10:46:21.805, 1583739981805
250, -25042.42, -30239.94, -19113.54, -15458.35, -17793.64, -20592.42, -22756.49, -20999.84, 0.000, 0.000, 0.000, 10:46:21.805, 1583739981805
251, -25085.52, -30264.73, -19097.73, -15413.96, -17710.16, -20575.85, -22801.93, -20972.11, 0.000, 0.000, 0.000, 10:46:21.805, 1583739981805
252, -25580.74, -30313.03, -19192.62, -15505.56, -18258.96, -20616.60, -23039.51, -21208.27, 0.000, 0.000, 0.000, 10:46:21.805, 1583739981805
253, -25879.41, -30323.52, -19272.34, -15596.13, -18687.04, -20646.33, -23166.26, -21389.97, 0.000, 0.000, 0.000, 10:46:21.805, 1583739981805
254, -25633.16, -30297.59, -19231.20, -15543.04, -18418.98, -20617.43, -23028.24, -21278.50, 0.000, 0.000, 0.000, 10:46:21.805, 1583739981805
255, -25049.06, -30238.58, -19115.03, -15452.25, -17795.36, -20583.81, -22757.03, -20995.37, 0.000, 0.000, 0.000, 10:46:21.806, 1583739981806
0, -25083.24, -30263.01, -19092.55, -15410.97, -17703.90, -20569.79, -22795.54, -20965.49, 0.000, 0.000, 0.000, 10:46:21.806, 1583739981806
1, -25583.45, -30318.38, -19187.01, -15501.72, -18252.52, -20612.31, -23035.80, -21201.10, 0.004, -0.028, 0.976, 10:46:21.806, 1583739981806
2, -25885.91, -30335.18, -19270.06, -15597.16, -18686.57, -20646.37, -23166.15, -21387.18, 0.000, 0.000, 0.000, 10:46:21.806, 1583739981806
3, -25635.93, -30295.35, -19226.21, -15545.97, -18420.77, -20619.06, -23028.15, -21278.59, 0.000, 0.000, 0.000, 10:46:21.806, 1583739981806
4, -25047.12, -30224.01, -19105.53, -15446.11, -17790.83, -20580.97, -22754.95, -20989.38, 0.000, 0.000, 0.000, 10:46:21.806, 1583739981806
5, -25081.21, -30255.97, -19082.55, -15396.89, -17693.42, -20562.40, -22789.59, -20954.29, 0.000, 0.000, 0.000, 10:46:21.807, 1583739981807
6, -25579.40, -30319.89, -19178.15, -15487.66, -18241.06, -20603.84, -23030.34, -21191.13, 0.000, 0.000, 0.000, 10:46:21.807, 1583739981807
7, -25882.38, -30336.39, -19263.54, -15590.39, -18683.06, -20641.10, -23161.48, -21380.54, 0.000, 0.000, 0.000, 10:46:21.807, 1583739981807
8, -25641.90, -30296.11, -19222.41, -15539.60, -18423.96, -20614.81, -23025.13, -21273.25, 0.000, 0.000, 0.000, 10:46:21.807, 1583739981807
9, -25051.16, -30227.63, -19107.21, -15448.16, -17799.30, -20583.56, -22754.32, -20989.03, 0.000, 0.000, 0.000, 10:46:21.807, 1583739981807
10, -25076.24, -30256.64, -19094.40, -15418.14, -17707.14, -20577.55, -22795.96, -20962.90, 0.000, 0.000, 0.000, 10:46:21.808, 1583739981808
11, -25573.79, -30312.63, -19186.98, -15506.83, -18248.72, -20616.47, -23033.92, -21196.92, 0.008, -0.022, 0.970, 10:46:21.808, 1583739981808
12, -25885.93, -30328.88, -19271.16, -15596.24, -18688.63, -20648.50, -23165.59, -21383.71, 0.000, 0.000, 0.000, 10:46:21.808, 1583739981808
13, -25643.46, -30286.93, -19228.71, -15546.53, -18433.08, -20620.65, -23029.98, -21276.78, 0.000, 0.000, 0.000, 10:46:21.808, 1583739981808
14, -25054.18, -30227.74, -19110.09, -15450.31, -17805.15, -20584.44, -22757.96, -20990.99, 0.000, 0.000, 0.000, 10:46:21.808, 1583739981808
15, -25071.82, -30253.51, -19087.29, -15405.96, -17699.43, -20569.24, -22788.79, -20954.56, 0.000, 0.000, 0.000, 10:46:21.808, 1583739981808
16, -25571.00, -30314.51, -19183.23, -15499.64, -18242.85, -20613.34, -23028.53, -21191.98, 0.000, 0.000, 0.000, 10:46:21.809, 1583739981809
17, -25883.48, -30332.72, -19269.42, -15598.32, -18688.20, -20650.15, -23164.63, -21382.44, 0.000, 0.000, 0.000, 10:46:21.809, 1583739981809
18, -25654.57, -30300.67, -19232.69, -15552.83, -18442.33, -20627.02, -23037.36, -21283.98, 0.000, 0.000, 0.000, 10:46:21.809, 1583739981809
19, -25061.40, -30234.24, -19118.21, -15460.68, -17816.20, -20594.03, -22766.08, -21001.41, 0.000, 0.000, 0.000, 10:46:21.809, 1583739981809
20, -25069.36, -30253.33, -19091.99, -15410.45, -17700.30, -20572.43, -22791.67, -20958.69, 0.000, 0.000, 0.000, 10:46:21.809, 1583739981809
21, -25563.78, -30303.67, -19179.12, -15494.77, -18236.27, -20606.99, -23026.36, -21188.94, 0.010, -0.022, 0.974, 10:46:21.810, 1583739981810
22, -25874.38, -30322.64, -19261.57, -15593.18, -18682.01, -20641.12, -23157.99, -21378.37, 0.000, 0.000, 0.000, 10:46:21.810, 1583739981810
23, -25654.01, -30295.89, -19226.86, -15552.10, -18441.37, -20621.36, -23033.63, -21285.50, 0.000, 0.000, 0.000, 10:46:21.810, 1583739981810
24, -25062.18, -30234.24, -19114.23, -15464.93, -17818.94, -20594.12, -22762.97, -21006.62, 0.000, 0.000, 0.000, 10:46:21.810, 1583739981810
25, -25066.12, -30254.40, -19093.24, -15419.46, -17705.46, -20581.33, -22793.50, -20967.23, 0.000, 0.000, 0.000, 10:46:21.811, 1583739981811
26, -25560.40, -30305.92, -19181.51, -15498.88, -18236.54, -20613.92, -23028.17, -21191.84, 0.000, 0.000, 0.000, 10:46:21.811, 1583739981811
27, -25880.90, -30330.02, -19266.00, -15594.72, -18685.70, -20646.78, -23161.30, -21380.43, 0.000, 0.000, 0.000, 10:46:21.811, 1583739981811
28, -25655.13, -30284.85, -19227.48, -15549.93, -18444.97, -20621.47, -23033.43, -21282.62, 0.000, 0.000, 0.000, 10:46:21.811, 1583739981811
29, -25060.89, -30217.43, -19112.48, -15462.40, -17818.30, -20591.92, -22760.40, -20999.66, 0.000, 0.000, 0.000, 10:46:21.811, 1583739981811
30, -25062.21, -30241.95, -19085.77, -15419.10, -17694.33, -20577.24, -22783.40, -20956.68, 0.000, 0.000, 0.000, 10:46:21.811, 1583739981811
31, -25558.75, -30301.74, -19175.43, -15494.25, -18224.90, -20610.34, -23018.81, -21184.76, 0.000, 0.000, 0.000, 10:46:21.812, 1583739981812
32, -25874.42, -30328.70, -19256.07, -15583.17, -18675.51, -20637.81, -23150.75, -21371.71, 0.006, -0.020, 0.970, 10:46:21.812, 1583739981812
33, -25661.95, -30306.64, -19223.93, -15543.38, -18447.05, -20616.94, -23031.15, -21280.40, 0.000, 0.000, 0.000, 10:46:21.812, 1583739981812
34, -25069.09, -30241.06, -19107.72, -15450.69, -17818.68, -20583.27, -22756.80, -20994.17, 0.000, 0.000, 0.000, 10:46:21.812, 1583739981812
35, -25061.24, -30253.80, -19083.79, -15404.08, -17690.60, -20568.54, -22780.36, -20949.04, 0.000, 0.000, 0.000, 10:46:21.812, 1583739981812
36, -25555.75, -30305.70, -19174.60, -15489.89, -18223.42, -20607.41, -23015.61, -21178.90, 0.000, 0.000, 0.000, 10:46:21.813, 1583739981813
37, -25881.55, -30324.54, -19263.20, -15595.24, -18683.73, -20644.56, -23154.64, -21375.42, 0.000, 0.000, 0.000, 10:46:21.813, 1583739981813
38, -25672.72, -30291.53, -19232.83, -15558.74, -18458.43, -20625.79, -23038.03, -21289.75, 0.000, 0.000, 0.000, 10:46:21.813, 1583739981813
39, -25071.12, -30221.90, -19113.85, -15457.28, -17825.81, -20587.59, -22758.05, -21000.29, 0.000, 0.000, 0.000, 10:46:21.813, 1583739981813
40, -25061.42, -30254.07, -19087.76, -15406.07, -17695.23, -20568.68, -22779.49, -20949.37, 0.000, 0.000, 0.000, 10:46:21.813, 1583739981813
41, -25556.47, -30312.72, -19176.83, -15487.46, -18221.43, -20603.81, -23015.95, -21175.53, 0.000, 0.000, 0.000, 10:46:21.814, 1583739981814
42, -25876.30, -30323.98, -19258.82, -15588.46, -18678.55, -20637.01, -23151.73, -21366.41, 0.010, -0.026, 0.966, 10:46:21.814, 1583739981814
43, -25665.23, -30297.72, -19224.44, -15547.54, -18456.15, -20613.70, -23031.46, -21278.97, 0.000, 0.000, 0.000, 10:46:21.814, 1583739981814
44, -25075.35, -30239.45, -19108.71, -15452.19, -17829.58, -20579.45, -22757.36, -20995.17, 0.000, 0.000, 0.000, 10:46:21.814, 1583739981814
45, -25064.53, -30261.27, -19084.34, -15406.97, -17694.96, -20566.58, -22777.59, -20947.83, 0.000, 0.000, 0.000, 10:46:21.814, 1583739981814
46, -25554.53, -30312.47, -19175.72, -15494.38, -18225.14, -20608.33, -23019.55, -21181.07, 0.000, 0.000, 0.000, 10:46:21.814, 1583739981814
47, -25881.87, -30329.82, -19266.31, -15605.03, -18693.14, -20651.63, -23161.59, -21383.55, 0.000, 0.000, 0.000, 10:46:21.815, 1583739981815
48, -25683.49, -30302.46, -19238.30, -15571.16, -18479.19, -20633.50, -23046.88, -21300.36, 0.000, 0.000, 0.000, 10:46:21.815, 1583739981815
49, -25085.90, -30237.95, -19118.72, -15466.04, -17845.72, -20593.94, -22768.67, -21009.54, 0.000, 0.000, 0.000, 10:46:21.815, 1583739981815
50, -25062.79, -30258.31, -19091.90, -15414.90, -17701.71, -20577.35, -22785.17, -20957.46, 0.000, 0.000, 0.000, 10:46:21.815, 1583739981815
51, -25555.35, -30315.60, -19184.21, -15503.48, -18228.61, -20618.75, -23024.62, -21188.09, 0.000, 0.000, 0.000, 10:46:21.815, 1583739981815
52, -25889.04, -30337.71, -19276.68, -15609.18, -18698.42, -20659.87, -23169.28, -21390.55, 0.006, -0.020, 0.966, 10:46:21.818, 1583739981818
53, -25680.23, -30299.26, -19235.02, -15550.87, -18473.78, -20623.60, -23043.66, -21295.15, 0.000, 0.000, 0.000, 10:46:21.819, 1583739981819
54, -25078.03, -30232.50, -19116.78, -15453.24, -17839.02, -20586.38, -22764.33, -21005.88, 0.000, 0.000, 0.000, 10:46:21.819, 1583739981819
55, -25053.49, -30255.01, -19090.27, -15407.33, -17691.27, -20571.92, -22777.88, -20953.24, 0.000, 0.000, 0.000, 10:46:21.819, 1583739981819
56, -25553.12, -30313.12, -19176.39, -15487.55, -18210.59, -20606.12, -23011.99, -21178.43, 0.000, 0.000, 0.000, 10:46:21.819, 1583739981819
57, -25887.21, -30333.48, -19262.15, -15588.91, -18680.80, -20641.48, -23154.71, -21375.82, 0.000, 0.000, 0.000, 10:46:21.819, 1583739981819
58, -25689.06, -30304.00, -19232.42, -15548.90, -18473.74, -20618.95, -23043.24, -21294.48, 0.000, 0.000, 0.000, 10:46:21.819, 1583739981819
59, -25088.76, -30243.09, -19116.78, -15455.94, -17842.66, -20586.22, -22766.62, -21009.12, 0.000, 0.000, 0.000, 10:46:21.819, 1583739981819
60, -25054.36, -30262.45, -19088.95, -15409.65, -17688.05, -20573.04, -22776.58, -20952.81, 0.000, 0.000, 0.000, 10:46:21.820, 1583739981820
61, -25547.19, -30314.82, -19177.77, -15488.24, -18207.42, -20608.06, -23012.84, -21177.81, 0.000, 0.000, 0.000, 10:46:21.820, 1583739981820
62, -25880.32, -30332.14, -19267.45, -15594.45, -18680.51, -20644.61, -23157.55, -21378.21, 0.006, -0.020, 0.964, 10:46:21.820, 1583739981820
63, -25691.03, -30302.39, -19237.43, -15554.71, -18480.38, -20622.03, -23048.31, -21298.26, 0.000, 0.000, 0.000, 10:46:21.820, 1583739981820
64, -25092.87, -30231.45, -19120.38, -15460.08, -17847.80, -20587.83, -22769.59, -21010.21, 0.000, 0.000, 0.000, 10:46:21.820, 1583739981820
65, -25051.63, -30248.53, -19084.34, -15405.96, -17683.67, -20567.76, -22772.04, -20946.94, 0.000, 0.000, 0.000, 10:46:21.820, 1583739981820
66, -25541.16, -30310.37, -19170.29, -15482.14, -18199.35, -20602.36, -23007.57, -21172.69, 0.000, 0.000, 0.000, 10:46:21.821, 1583739981821
67, -25876.90, -30336.90, -19259.89, -15592.11, -18679.71, -20645.03, -23153.54, -21377.92, 0.000, 0.000, 0.000, 10:46:21.821, 1583739981821
68, -25694.60, -30304.36, -19230.70, -15554.02, -18481.25, -20623.55, -23043.71, -21301.03, 0.000, 0.000, 0.000, 10:46:21.821, 1583739981821
69, -25104.12, -30237.13, -19113.36, -15456.25, -17846.10, -20586.65, -22763.22, -21012.16, 0.000, 0.000, 0.000, 10:46:21.821, 1583739981821
70, -25062.92, -30249.91, -19083.18, -15406.92, -17681.77, -20570.47, -22766.99, -20949.42, 0.000, 0.000, 0.000, 10:46:21.821, 1583739981821
71, -25551.31, -30316.43, -19170.29, -15489.69, -18195.75, -20607.73, -23004.73, -21175.39, 0.000, 0.000, 0.000, 10:46:21.821, 1583739981821
72, -25881.96, -30338.11, -19255.60, -15590.45, -18669.90, -20641.79, -23147.71, -21373.86, 0.006, -0.020, 0.972, 10:46:21.822, 1583739981822
73, -25701.96, -30308.61, -19231.55, -15551.36, -18482.59, -20621.70, -23043.22, -21301.14, 0.000, 0.000, 0.000, 10:46:21.822, 1583739981822
74, -25103.33, -30239.65, -19116.35, -15458.71, -17856.34, -20589.22, -22767.62, -21016.85, 0.000, 0.000, 0.000, 10:46:21.822, 1583739981822
75, -25051.77, -30259.10, -19082.73, -15405.85, -17686.46, -20569.01, -22769.14, -20949.42, 0.000, 0.000, 0.000, 10:46:21.822, 1583739981822
76, -25543.28, -30315.16, -19173.71, -15484.75, -18197.61, -20605.09, -23005.80, -21172.67, 0.000, 0.000, 0.000, 10:46:21.822, 1583739981822
77, -25880.14, -30331.63, -19263.16, -15593.00, -18678.26, -20642.48, -23149.46, -21373.03, 0.000, 0.000, 0.000, 10:46:21.822, 1583739981822
78, -25701.35, -30304.11, -19235.71, -15551.61, -18488.89, -20617.81, -23043.96, -21298.13, 0.000, 0.000, 0.000, 10:46:21.822, 1583739981822
79, -25101.72, -30234.35, -19118.86, -15456.32, -17856.92, -20582.51, -22764.67, -21011.73, 0.000, 0.000, 0.000, 10:46:21.823, 1583739981823
80, -25049.06, -30248.66, -19087.79, -15410.66, -17682.96, -20570.55, -22766.68, -20948.28, 0.000, 0.000, 0.000, 10:46:21.823, 1583739981823
81, -25535.95, -30311.07, -19173.08, -15484.04, -18191.95, -20602.79, -23003.30, -21168.49, 0.000, 0.000, 0.000, 10:46:21.823, 1583739981823
82, -25877.26, -30325.48, -19261.95, -15589.31, -18676.67, -20641.66, -23150.95, -21372.27, 0.000, -0.020, 0.974, 10:46:21.823, 1583739981823
83, -25706.90, -30305.14, -19234.84, -15555.34, -18497.39, -20624.78, -23051.29, -21305.77, 0.000, 0.000, 0.000, 10:46:21.823, 1583739981823
84, -25104.85, -30242.04, -19118.21, -15461.77, -17865.90, -20592.35, -22773.28, -21019.78, 0.000, 0.000, 0.000, 10:46:21.823, 1583739981823
85, -25044.10, -30253.46, -19086.24, -15410.25, -17685.19, -20575.83, -22769.45, -20950.49, 0.000, 0.000, 0.000, 10:46:21.824, 1583739981824
86, -25528.98, -30305.19, -19170.00, -15481.04, -18187.81, -20605.56, -23001.04, -21169.20, 0.000, 0.000, 0.000, 10:46:21.824, 1583739981824
87, -25869.77, -30326.60, -19263.09, -15597.78, -18676.27, -20649.86, -23152.32, -21379.22, 0.000, 0.000, 0.000, 10:46:21.824, 1583739981824
88, -25713.60, -30301.03, -19241.25, -15567.50, -18502.15, -20632.92, -23055.53, -21314.60, 0.000, 0.000, 0.000, 10:46:21.824, 1583739981824
89, -25116.54, -30235.81, -19120.89, -15463.54, -17867.56, -20593.27, -22770.23, -21021.44, 0.000, 0.000, 0.000, 10:46:21.824, 1583739981824
90, -25042.31, -30246.47, -19081.10, -15405.07, -17676.70, -20570.18, -22757.14, -20941.66, 0.000, 0.000, 0.000, 10:46:22.276, 1583739982276
91, -25530.43, -30305.03, -19170.40, -15485.04, -18180.86, -20608.53, -22996.52, -21164.84, 0.000, 0.000, 0.000, 10:46:22.276, 1583739982276
92, -25874.18, -30325.10, -19260.59, -15589.38, -18669.43, -20644.70, -23146.77, -21369.47, 0.000, -0.020, 0.972, 10:46:22.276, 1583739982276
93, -25713.67, -30295.35, -19236.69, -15547.14, -18498.55, -20618.39, -23047.93, -21300.90, 0.000, 0.000, 0.000, 10:46:22.276, 1583739982276
94, -25111.51, -30226.29, -19120.29, -15451.74, -17869.32, -20582.25, -22766.30, -21013.19, 0.000, 0.000, 0.000, 10:46:22.277, 1583739982277
95, -25037.22, -30240.37, -19087.25, -15404.08, -17678.49, -20569.04, -22758.70, -20941.10, 0.000, 0.000, 0.000, 10:46:22.277, 1583739982277
96, -25528.53, -30299.96, -19179.23, -15486.90, -18184.87, -20611.30, -23001.20, -21166.86, 0.000, 0.000, 0.000, 10:46:22.277, 1583739982277
97, -25874.49, -30321.26, -19273.10, -15595.91, -18679.89, -20650.91, -23154.93, -21374.88, 0.000, 0.000, 0.000, 10:46:22.277, 1583739982277
98, -25717.31, -30298.04, -19247.89, -15561.31, -18512.63, -20627.62, -23057.72, -21308.74, 0.000, 0.000, 0.000, 10:46:22.277, 1583739982277
99, -25117.64, -30233.86, -19129.11, -15464.55, -17879.09, -20591.21, -22775.62, -21021.05, 0.000, 0.000, 0.000, 10:46:22.278, 1583739982278
100, -25035.05, -30239.94, -19087.88, -15406.99, -17676.23, -20567.70, -22758.01, -20938.09, 0.000, 0.000, 0.000, 10:46:22.278, 1583739982278
101, -25522.76, -30304.83, -19176.79, -15487.61, -18175.50, -20603.97, -22996.19, -21158.74, 0.000, 0.000, 0.000, 10:46:22.281, 1583739982281
102, -25867.54, -30326.42, -19265.15, -15593.60, -18669.49, -20641.37, -23147.44, -21363.39, 0.000, -0.020, 0.980, 10:46:22.281, 1583739982281
103, -25720.42, -30300.07, -19244.61, -15561.89, -18511.74, -20624.38, -23056.88, -21306.38, 0.000, 0.000, 0.000, 10:46:22.281, 1583739982281
104, -25123.05, -30228.48, -19127.10, -15465.73, -17878.13, -20588.73, -22773.01, -21019.45, 0.000, 0.000, 0.000, 10:46:22.281, 1583739982281
105, -25041.04, -30243.12, -19088.75, -15410.99, -17672.38, -20569.84, -22756.36, -20938.98, 0.000, 0.000, 0.000, 10:46:22.283, 1583739982283
106, -25523.81, -30303.60, -19174.60, -15485.82, -18166.71, -20605.22, -22992.59, -21157.96, 0.000, 0.000, 0.000, 10:46:22.283, 1583739982283
107, -25868.63, -30317.26, -19267.40, -15597.09, -18667.86, -20648.36, -23147.04, -21368.80, 0.000, 0.000, 0.000, 10:46:22.283, 1583739982283
108, -25722.21, -30294.30, -19247.85, -15562.74, -18514.98, -20627.78, -23057.88, -21312.16, 0.000, 0.000, 0.000, 10:46:22.283, 1583739982283
109, -25120.43, -30229.79, -19126.92, -15461.84, -17880.32, -20589.29, -22772.87, -21022.55, 0.000, 0.000, 0.000, 10:46:22.283, 1583739982283
110, -25027.94, -30240.54, -19087.79, -15408.76, -17674.62, -20572.19, -22754.28, -20939.43, 0.000, 0.000, 0.000, 10:46:22.283, 1583739982283
111, -25507.61, -30302.68, -19174.09, -15482.02, -18167.74, -20607.08, -22991.09, -21157.31, 0.000, 0.000, 0.000, 10:46:22.283, 1583739982283
112, -25860.30, -30329.35, -19268.68, -15596.11, -18674.97, -20651.31, -23148.85, -21370.81, 0.002, -0.016, 0.976, 10:46:22.284, 1583739982284
113, -25720.40, -30298.08, -19246.53, -15562.49, -18526.94, -20629.59, -23059.24, -21311.47, 0.000, 0.000, 0.000, 10:46:22.284, 1583739982284
114, -25121.66, -30227.13, -19125.29, -15459.23, -17890.20, -20587.25, -22775.11, -21019.42, 0.000, 0.000, 0.000, 10:46:22.284, 1583739982284
115, -25023.00, -30237.30, -19083.90, -15403.46, -17672.72, -20568.01, -22751.66, -20932.23, 0.000, 0.000, 0.000, 10:46:22.284, 1583739982284
116, -25504.10, -30298.93, -19172.52, -15483.79, -18165.33, -20607.35, -22990.67, -21151.39, 0.000, 0.000, 0.000, 10:46:22.284, 1583739982284
117, -25858.15, -30321.37, -19263.60, -15591.39, -18669.16, -20646.75, -23148.09, -21362.50, 0.000, 0.000, 0.000, 10:46:22.284, 1583739982284
118, -25721.31, -30299.93, -19241.92, -15551.90, -18523.87, -20620.98, -23058.73, -21306.35, 0.000, 0.000, 0.000, 10:46:22.284, 1583739982284
119, -25122.06, -30230.44, -19126.01, -15460.41, -17891.99, -20588.26, -22776.34, -21022.98, 0.000, 0.000, 0.000, 10:46:22.285, 1583739982285
120, -25020.01, -30238.18, -19086.42, -15405.36, -17671.42, -20571.79, -22750.37, -20935.80, 0.000, 0.000, 0.000, 10:46:22.285, 1583739982285
121, -25500.01, -30300.16, -19171.36, -15476.17, -18158.58, -20604.20, -22985.46, -21148.88, 0.000, 0.000, 0.000, 10:46:22.285, 1583739982285
122, -25857.10, -30318.11, -19262.58, -15587.06, -18664.53, -20643.22, -23142.15, -21358.81, 0.000, 0.000, 0.000, 10:46:22.285, 1583739982285
123, -25723.77, -30295.06, -19242.75, -15553.59, -18524.66, -20621.05, -23056.47, -21305.99, 0.006, -0.014, 0.964, 10:46:22.285, 1583739982285
124, -25125.71, -30230.58, -19123.97, -15458.18, -17892.04, -20584.91, -22772.87, -21018.46, 0.000, 0.000, 0.000, 10:46:22.285, 1583739982285
125, -25020.52, -30242.04, -19083.00, -15405.98, -17670.04, -20571.23, -22748.76, -20931.45, 0.000, 0.000, 0.000, 10:46:22.285, 1583739982285
126, -25502.80, -30305.86, -19173.26, -15482.78, -18156.12, -20611.37, -22988.46, -21152.48, 0.000, 0.000, 0.000, 10:46:22.285, 1583739982285
127, -25864.19, -30325.10, -19270.15, -15599.95, -18667.37, -20657.35, -23150.28, -21371.17, 0.000, 0.000, 0.000, 10:46:22.285, 1583739982285
128, -25730.30, -30297.88, -19245.95, -15560.84, -18528.34, -20628.74, -23063.85, -21314.64, 0.000, 0.000, 0.000, 10:46:22.285, 1583739982285
129, -25130.13, -30239.58, -19131.86, -15468.30, -17901.67, -20594.99, -22784.09, -21031.54, 0.000, 0.000, 0.000, 10:46:22.285, 1583739982285
130, -25011.02, -30239.38, -19088.66, -15411.26, -17670.60, -20576.41, -22754.68, -20938.20, 0.000, 0.000, 0.000, 10:46:22.285, 1583739982285
131, -25490.08, -30292.83, -19169.01, -15471.12, -18147.43, -20603.10, -22988.23, -21145.55, 0.000, 0.000, 0.000, 10:46:22.286, 1583739982286
132, -25855.63, -30325.53, -19262.93, -15580.55, -18658.43, -20644.32, -23148.18, -21358.23, 0.000, 0.000, 0.000, 10:46:22.286, 1583739982286
133, -25735.28, -30306.82, -19248.85, -15556.79, -18532.03, -20628.20, -23069.26, -21314.22, 0.010, -0.018, 0.964, 10:46:22.286, 1583739982286
134, -25140.48, -30245.80, -19136.42, -15469.35, -17906.61, -20599.14, -22791.45, -21033.59, 0.000, 0.000, 0.000, 10:46:22.286, 1583739982286
135, -25015.94, -30245.73, -19089.55, -15413.27, -17667.96, -20580.86, -22756.47, -20939.25, 0.000, 0.000, 0.000, 10:46:22.286, 1583739982286
136, -25489.91, -30302.04, -19169.30, -15475.59, -18140.83, -20608.46, -22987.56, -21147.65, 0.000, 0.000, 0.000, 10:46:22.286, 1583739982286
137, -25856.88, -30330.98, -19264.57, -15587.30, -18656.80, -20648.41, -23147.51, -21361.94, 0.000, 0.000, 0.000, 10:46:22.286, 1583739982286
138, -25737.74, -30313.08, -19249.57, -15556.90, -18536.75, -20628.67, -23068.38, -21316.95, 0.000, 0.000, 0.000, 10:46:22.287, 1583739982287
139, -25137.69, -30239.09, -19127.82, -15455.99, -17902.94, -20588.48, -22780.45, -21026.53, 0.000, 0.000, 0.000, 10:46:22.287, 1583739982287
140, -25014.11, -30250.11, -19084.70, -15401.71, -17662.28, -20572.59, -22745.74, -20931.00, 0.000, 0.000, 0.000, 10:46:22.287, 1583739982287
141, -25487.00, -30304.05, -19162.64, -15464.19, -18130.06, -20599.79, -22974.51, -21135.90, 0.000, 0.000, 0.000, 10:46:22.287, 1583739982287
142, -25852.12, -30320.23, -19255.27, -15579.37, -18646.63, -20640.38, -23133.47, -21349.80, 0.000, 0.000, 0.000, 10:46:22.287, 1583739982287
143, -25739.13, -30302.04, -19245.95, -15560.75, -18535.43, -20626.99, -23061.43, -21311.16, 0.010, -0.020, 0.970, 10:46:22.287, 1583739982287
144, -25139.10, -30233.91, -19129.61, -15466.89, -17907.86, -20593.27, -22779.94, -21026.84, 0.000, 0.000, 0.000, 10:46:22.287, 1583739982287
145, -25001.12, -30237.46, -19078.02, -15406.36, -17659.64, -20572.95, -22739.35, -20925.28, 0.000, 0.000, 0.000, 10:46:22.287, 1583739982287
146, -25473.10, -30291.84, -19157.63, -15465.73, -18126.24, -20599.34, -22974.11, -21131.54, 0.000, 0.000, 0.000, 10:46:22.288, 1583739982288
147, -25842.39, -30311.76, -19255.11, -15577.47, -18645.78, -20639.40, -23138.44, -21345.80, 0.000, 0.000, 0.000, 10:46:22.288, 1583739982288
148, -25731.75, -30289.16, -19239.89, -15552.25, -18534.65, -20618.41, -23060.38, -21303.07, 0.000, 0.000, 0.000, 10:46:22.288, 1583739982288
149, -25137.64, -30219.07, -19124.91, -15460.17, -17907.48, -20584.48, -22779.87, -21021.66, 0.000, 0.000, 0.000, 10:46:22.288, 1583739982288
150, -25000.40, -30226.46, -19078.62, -15404.53, -17659.38, -20566.91, -22740.60, -20920.20, 0.000, 0.000, 0.000, 10:46:22.288, 1583739982288
151, -25472.70, -30284.06, -19160.21, -15470.67, -18126.46, -20598.45, -22975.31, -21128.86, 0.000, 0.000, 0.000, 10:46:22.288, 1583739982288
152, -25844.25, -30312.52, -19256.34, -15580.89, -18646.88, -20638.84, -23138.62, -21348.49, 0.000, 0.000, 0.000, 10:46:22.288, 1583739982288
153, -25743.82, -30301.95, -19244.76, -15559.54, -18543.48, -20624.04, -23068.36, -21316.05, 0.008, -0.020, 0.978, 10:46:22.288, 1583739982288
154, -25149.42, -30237.42, -19131.82, -15469.78, -17920.29, -20592.42, -22790.55, -21036.12, 0.000, 0.000, 0.000, 10:46:22.289, 1583739982289
155, -25000.89, -30239.00, -19083.27, -15408.64, -17659.38, -20569.91, -22744.78, -20926.62, 0.000, 0.000, 0.000, 10:46:22.290, 1583739982290
156, -25467.82, -30300.76, -19162.60, -15464.55, -18119.49, -20595.92, -22976.36, -21129.57, 0.000, 0.000, 0.000, 10:46:22.290, 1583739982290
157, -25843.29, -30323.96, -19259.18, -15577.80, -18646.43, -20640.20, -23144.09, -21348.44, 0.000, 0.000, 0.000, 10:46:22.290, 1583739982290
158, -25746.84, -30302.93, -19254.37, -15564.75, -18556.64, -20631.13, -23080.99, -21320.48, 0.000, 0.000, 0.000, 10:46:22.290, 1583739982290
159, -25147.90, -30235.72, -19135.78, -15469.66, -17930.81, -20595.34, -22794.46, -21036.48, 0.000, 0.000, 0.000, 10:46:22.291, 1583739982291
160, -24998.75, -30232.68, -19085.84, -15405.11, -17667.13, -20574.13, -22745.45, -20925.61, 0.000, 0.000, 0.000, 10:46:22.291, 1583739982291
161, -25467.53, -30291.57, -19169.15, -15469.24, -18127.55, -20605.94, -22980.03, -21131.43, 0.000, 0.000, 0.000, 10:46:22.291, 1583739982291
162, -25840.94, -30315.13, -19264.77, -15586.25, -18659.55, -20650.31, -23147.62, -21354.41, 0.000, 0.000, 0.000, 10:46:22.291, 1583739982291
163, -25749.52, -30302.84, -19256.07, -15566.04, -18566.92, -20634.71, -23079.49, -21323.50, 0.010, -0.022, 0.972, 10:46:22.291, 1583739982291
164, -25154.47, -30238.56, -19143.02, -15474.29, -17944.43, -20602.07, -22797.64, -21042.31, 0.000, 0.000, 0.000, 10:46:22.291, 1583739982291
165, -24991.31, -30234.02, -19087.58, -15410.07, -17671.45, -20579.03, -22742.03, -20927.65, 0.000, 0.000, 0.000, 10:46:22.291, 1583739982291
166, -25458.05, -30285.88, -19165.66, -15468.23, -18126.33, -20606.52, -22971.38, -21130.45, 0.000, 0.000, 0.000, 10:46:22.292, 1583739982292
167, -25834.41, -30301.12, -19260.50, -15583.01, -18653.27, -20648.85, -23139.69, -21350.32, 0.000, 0.000, 0.000, 10:46:22.292, 1583739982292
168, -25742.71, -30288.58, -19251.91, -15567.74, -18566.52, -20635.38, -23074.96, -21322.45, 0.000, 0.000, 0.000, 10:46:22.292, 1583739982292
169, -25145.76, -30220.05, -19136.58, -15473.13, -17939.04, -20599.26, -22789.97, -21038.42, 0.000, 0.000, 0.000, 10:46:22.292, 1583739982292
170, -24980.60, -30223.29, -19082.96, -15408.20, -17659.78, -20574.15, -22734.41, -20921.21, 0.000, 0.000, 0.000, 10:46:22.292, 1583739982292
171, -25447.93, -30288.18, -19161.61, -15468.81, -18108.76, -20602.74, -22966.57, -21122.49, 0.000, 0.000, 0.000, 10:46:22.292, 1583739982292
172, -25833.38, -30315.22, -19264.01, -15597.96, -18646.67, -20654.33, -23138.21, -21349.20, 0.000, 0.000, 0.000, 10:46:22.292, 1583739982292
173, -25746.46, -30293.25, -19252.14, -15571.54, -18561.58, -20633.95, -23071.11, -21317.26, 0.004, -0.020, 0.970, 10:46:22.292, 1583739982292
174, -25153.69, -30222.37, -19131.01, -15458.82, -17932.67, -20587.48, -22785.17, -21026.87, 0.000, 0.000, 0.000, 10:46:22.292, 1583739982292
175, -24986.39, -30226.71, -19078.15, -15395.88, -17651.33, -20565.86, -22730.20, -20911.31, 0.000, 0.000, 0.000, 10:46:22.293, 1583739982293
176, -25453.54, -30293.70, -19157.14, -15459.65, -18101.18, -20597.51, -22964.36, -21114.71, 0.000, 0.000, 0.000, 10:46:22.293, 1583739982293
177, -25834.73, -30320.07, -19253.39, -15573.24, -18636.19, -20637.30, -23135.04, -21333.44, 0.000, 0.000, 0.000, 10:46:22.293, 1583739982293
178, -25755.06, -30294.57, -19248.47, -15553.62, -18561.22, -20620.29, -23073.97, -21308.12, 0.000, 0.000, 0.000, 10:46:22.293, 1583739982293
179, -25162.97, -30225.84, -19133.99, -15460.48, -17938.75, -20585.42, -22792.16, -21029.06, 0.000, 0.000, 0.000, 10:46:22.293, 1583739982293
180, -24985.63, -30231.76, -19079.09, -15397.94, -17654.39, -20564.95, -22733.85, -20910.62, 0.000, 0.000, 0.000, 10:46:22.293, 1583739982293
181, -25446.81, -30285.54, -19152.67, -15450.89, -18096.31, -20589.53, -22959.85, -21105.50, 0.000, 0.000, 0.000, 10:46:22.293, 1583739982293
182, -25830.05, -30304.40, -19250.48, -15573.15, -18634.20, -20636.27, -23131.57, -21330.47, 0.000, 0.000, 0.000, 10:46:22.293, 1583739982293
183, -25756.27, -30291.44, -19246.73, -15563.68, -18566.10, -20626.17, -23075.54, -21313.77, 0.006, -0.022, 0.970, 10:46:22.294, 1583739982294
184, -25163.15, -30225.77, -19133.32, -15468.03, -17944.72, -20591.16, -22793.79, -21035.54, 0.000, 0.000, 0.000, 10:46:22.294, 1583739982294
185, -24983.79, -30228.70, -19081.77, -15406.03, -17658.01, -20571.65, -22733.36, -20918.46, 0.000, 0.000, 0.000, 10:46:22.294, 1583739982294
186, -25445.92, -30291.11, -19158.75, -15467.34, -18100.71, -20602.25, -22965.01, -21119.65, 0.000, 0.000, 0.000, 10:46:22.294, 1583739982294
187, -25829.41, -30310.95, -19255.58, -15586.59, -18638.67, -20646.78, -23136.87, -21344.08, 0.000, 0.000, 0.000, 10:46:22.294, 1583739982294
188, -25763.58, -30297.01, -19256.83, -15572.35, -18578.21, -20635.17, -23084.12, -21329.20, 0.000, 0.000, 0.000, 10:46:22.294, 1583739982294
189, -25168.38, -30222.69, -19137.74, -15468.68, -17953.39, -20591.88, -22796.99, -21042.13, 0.000, 0.000, 0.000, 10:46:22.294, 1583739982294
190, -24976.91, -30215.53, -19079.47, -15403.70, -17656.11, -20568.90, -22729.80, -20916.70, 0.000, 0.000, 0.000, 10:46:22.294, 1583739982294
191, -25439.17, -30283.57, -19153.70, -15455.43, -18091.08, -20592.97, -22955.71, -21111.89, 0.000, 0.000, 0.000, 10:46:22.295, 1583739982295
192, -25828.60, -30313.14, -19249.14, -15570.40, -18630.63, -20636.20, -23127.39, -21335.12, 0.000, 0.000, 0.000, 10:46:22.295, 1583739982295
193, -25763.51, -30304.11, -19247.29, -15560.93, -18572.11, -20625.29, -23075.92, -21320.88, 0.006, -0.018, 0.976, 10:46:22.295, 1583739982295
194, -25176.47, -30237.91, -19132.33, -15463.32, -17951.63, -20588.86, -22793.95, -21041.10, 0.000, 0.000, 0.000, 10:46:22.296, 1583739982296
195, -24977.45, -30225.50, -19070.93, -15394.79, -17645.12, -20563.96, -22719.81, -20911.82, 0.000, 0.000, 0.000, 10:46:22.296, 1583739982296
196, -25433.18, -30282.86, -19147.26, -15453.19, -18076.75, -20592.75, -22946.81, -21107.65, 0.000, 0.000, 0.000, 10:46:22.296, 1583739982296
197, -25821.25, -30309.43, -19246.15, -15572.04, -18618.58, -20636.63, -23122.54, -21332.64, 0.000, 0.000, 0.000, 10:46:22.296, 1583739982296
198, -25759.24, -30292.42, -19240.85, -15554.91, -18559.93, -20618.88, -23068.61, -21315.27, 0.000, 0.000, 0.000, 10:46:22.296, 1583739982296
199, -25176.22, -30222.75, -19129.79, -15465.55, -17946.46, -20585.51, -22788.56, -21038.18, 0.000, 0.000, 0.000, 10:46:22.296, 1583739982296
200, -24973.07, -30214.39, -19070.22, -15403.70, -17640.87, -20563.52, -22716.84, -20908.58, 0.000, 0.000, 0.000, 10:46:22.297, 1583739982297
201, -25424.79, -30272.22, -19141.74, -15452.34, -18067.61, -20585.33, -22940.71, -21097.63, 0.000, 0.000, 0.000, 10:46:22.297, 1583739982297
202, -25818.88, -30305.37, -19241.32, -15568.53, -18614.96, -20630.93, -23116.38, -21324.26, 0.000, 0.000, 0.000, 10:46:22.297, 1583739982297
203, -25759.20, -30299.44, -19244.43, -15563.99, -18570.83, -20623.98, -23071.04, -21316.43, 0.006, -0.016, 0.978, 10:46:22.297, 1583739982297
204, -25176.18, -30228.81, -19129.72, -15463.45, -17953.41, -20585.33, -22790.51, -21036.66, 0.000, 0.000, 0.000, 10:46:22.297, 1583739982297
205, -24976.89, -30223.11, -19071.71, -15398.03, -17644.49, -20564.25, -22719.14, -20906.95, 0.000, 0.000, 0.000, 10:46:22.297, 1583739982297
206, -25430.12, -30286.03, -19149.32, -15459.07, -18070.96, -20594.47, -22946.55, -21101.54, 0.000, 0.000, 0.000, 10:46:22.298, 1583739982298
207, -25824.15, -30325.44, -19253.90, -15585.71, -18624.39, -20644.50, -23127.55, -21334.43, 0.000, 0.000, 0.000, 10:46:22.298, 1583739982298
208, -25774.00, -30309.63, -19252.65, -15567.25, -18581.14, -20627.49, -23081.82, -21325.13, 0.000, 0.000, 0.000, 10:46:22.298, 1583739982298
209, -25188.87, -30232.05, -19133.85, -15459.27, -17962.46, -20583.36, -22799.38, -21041.91, 0.000, 0.000, 0.000, 10:46:22.298, 1583739982298
210, -24977.72, -30223.54, -19068.21, -15385.80, -17641.43, -20555.63, -22718.78, -20902.43, 0.000, 0.000, 0.000, 10:46:22.754, 1583739982754
211, -25426.70, -30282.12, -19143.84, -15442.91, -18065.73, -20584.84, -22944.51, -21096.63, 0.000, 0.000, 0.000, 10:46:22.754, 1583739982754
212, -25820.47, -30301.28, -19245.57, -15566.00, -18618.67, -20633.92, -23124.06, -21328.17, 0.000, 0.000, 0.000, 10:46:22.755, 1583739982755
213, -25774.53, -30286.86, -19246.66, -15559.05, -18581.16, -20624.47, -23081.13, -21323.52, 0.000, 0.000, 0.000, 10:46:22.755, 1583739982755
214, -25193.99, -30230.73, -19135.04, -15466.74, -17968.72, -20590.76, -22802.36, -21049.44, 0.004, -0.014, 0.970, 10:46:22.755, 1583739982755
215, -24981.54, -30228.14, -19078.29, -15404.51, -17651.33, -20573.84, -22727.14, -20917.32, 0.000, 0.000, 0.000, 10:46:22.755, 1583739982755
216, -25428.51, -30287.22, -19150.24, -15453.37, -18066.74, -20597.62, -22949.74, -21105.19, 0.000, 0.000, 0.000, 10:46:22.755, 1583739982755
217, -25819.91, -30314.33, -19246.77, -15569.91, -18613.95, -20639.00, -23123.68, -21329.62, 0.000, 0.000, 0.000, 10:46:22.755, 1583739982755
218, -25776.61, -30300.85, -19249.41, -15562.33, -18582.50, -20628.27, -23081.95, -21325.53, 0.000, 0.000, 0.000, 10:46:22.756, 1583739982756
219, -25196.16, -30230.11, -19138.28, -15470.33, -17969.66, -20593.38, -22804.88, -21050.96, 0.000, 0.000, 0.000, 10:46:22.759, 1583739982759
220, -24970.38, -30222.22, -19070.31, -15400.53, -17639.46, -20566.22, -22716.52, -20907.20, 0.000, 0.000, 0.000, 10:46:22.759, 1583739982759
221, -25415.79, -30281.34, -19137.65, -15448.94, -18047.60, -20590.78, -22937.34, -21093.99, 0.000, 0.000, 0.000, 10:46:22.759, 1583739982759
222, -25814.86, -30311.00, -19240.38, -15570.92, -18602.48, -20639.73, -23118.45, -21326.69, 0.000, 0.000, 0.000, 10:46:22.759, 1583739982759
223, -25776.70, -30295.35, -19243.89, -15564.23, -18576.78, -20627.69, -23078.15, -21324.05, 0.000, 0.000, 0.000, 10:46:22.759, 1583739982759
224, -25192.23, -30222.82, -19131.62, -15469.51, -17965.86, -20590.87, -22796.74, -21048.77, 0.004, -0.018, 0.974, 10:46:22.760, 1583739982760
225, -24969.38, -30215.80, -19069.30, -15402.54, -17636.02, -20569.17, -22710.06, -20907.17, 0.000, 0.000, 0.000, 10:46:22.760, 1583739982760
226, -25415.63, -30287.26, -19141.56, -15452.45, -18046.06, -20594.58, -22933.87, -21091.40, 0.000, 0.000, 0.000, 10:46:22.760, 1583739982760
227, -25810.05, -30304.05, -19240.58, -15571.50, -18600.83, -20637.99, -23114.88, -21319.56, 0.000, 0.000, 0.000, 10:46:22.760, 1583739982760
228, -25780.70, -30282.41, -19249.37, -15568.21, -18589.39, -20630.97, -23082.82, -21323.36, 0.000, 0.000, 0.000, 10:46:22.760, 1583739982760
229, -25200.23, -30216.74, -19136.11, -15471.45, -17982.02, -20593.53, -22802.33, -21048.10, 0.000, 0.000, 0.000, 10:46:22.760, 1583739982760
230, -24964.13, -30213.08, -19072.56, -15404.33, -17644.02, -20570.40, -22713.06, -20904.63, 0.000, 0.000, 0.000, 10:46:22.761, 1583739982761
231, -25410.56, -30279.62, -19146.93, -15456.32, -18051.65, -20597.04, -22938.70, -21092.18, 0.000, 0.000, 0.000, 10:46:22.761, 1583739982761
232, -25816.51, -30310.04, -19252.59, -15577.94, -18614.06, -20646.33, -23125.83, -21326.98, 0.000, 0.000, 0.000, 10:46:22.761, 1583739982761
233, -25788.84, -30306.42, -19260.32, -15571.97, -18602.15, -20638.15, -23093.06, -21333.53, 0.000, 0.000, 0.000, 10:46:22.761, 1583739982761
234, -25209.55, -30238.31, -19146.66, -15479.03, -17994.74, -20603.05, -22813.69, -21061.36, 0.004, -0.022, 0.976, 10:46:22.761, 1583739982761
235, -24971.26, -30229.39, -19082.02, -15411.77, -17654.05, -20580.39, -22723.81, -20916.36, 0.000, 0.000, 0.000, 10:46:22.761, 1583739982761
236, -25408.21, -30287.33, -19151.46, -15457.88, -18053.79, -20602.81, -22945.21, -21098.39, 0.000, 0.000, 0.000, 10:46:22.762, 1583739982762
237, -25811.99, -30312.94, -19256.16, -15582.79, -18614.93, -20652.01, -23131.57, -21332.30, 0.000, 0.000, 0.000, 10:46:22.762, 1583739982762
238, -25782.67, -30296.40, -19259.00, -15575.03, -18605.57, -20638.30, -23093.33, -21333.91, 0.000, 0.000, 0.000, 10:46:22.762, 1583739982762
239, -25208.16, -30225.28, -19145.77, -15478.87, -17998.09, -20600.08, -22813.84, -21059.50, 0.000, 0.000, 0.000, 10:46:22.762, 1583739982762
240, -24965.15, -30213.16, -19076.86, -15409.52, -17649.92, -20574.80, -22716.81, -20908.27, 0.000, 0.000, 0.000, 10:46:22.762, 1583739982762
241, -25404.59, -30281.65, -19145.16, -15455.54, -18044.83, -20598.79, -22936.62, -21089.76, 0.000, 0.000, 0.000, 10:46:22.762, 1583739982762
242, -25815.30, -30315.96, -19248.79, -15579.86, -18608.68, -20648.36, -23122.79, -21325.49, 0.000, 0.000, 0.000, 10:46:22.762, 1583739982762
243, -25794.90, -30308.38, -19257.77, -15582.88, -18610.26, -20642.75, -23091.61, -21337.67, 0.000, 0.000, 0.000, 10:46:22.762, 1583739982762
244, -25217.15, -30239.85, -19146.17, -15491.93, -18006.05, -20608.17, -22813.91, -21066.38, 0.002, -0.022, 0.976, 10:46:22.763, 1583739982763
245, -24966.05, -30221.50, -19080.46, -15419.55, -17654.50, -20583.59, -22717.57, -20915.11, 0.000, 0.000, 0.000, 10:46:22.763, 1583739982763
246, -25400.50, -30275.24, -19145.25, -15458.62, -18042.37, -20601.60, -22934.72, -21091.80, 0.000, 0.000, 0.000, 10:46:22.763, 1583739982763
247, -25808.75, -30302.79, -19244.31, -15578.70, -18603.78, -20648.25, -23121.25, -21325.17, 0.000, 0.000, 0.000, 10:46:22.763, 1583739982763
248, -25792.93, -30291.93, -19251.94, -15577.62, -18604.81, -20639.96, -23092.12, -21336.84, 0.000, 0.000, 0.000, 10:46:22.763, 1583739982763
249, -25220.97, -30226.87, -19143.35, -15492.60, -18002.56, -20609.45, -22814.85, -21070.23, 0.000, 0.000, 0.000, 10:46:22.763, 1583739982763
250, -24970.18, -30225.03, -19081.17, -15429.23, -17653.29, -20594.27, -22722.49, -20924.27, 0.000, 0.000, 0.000, 10:46:22.763, 1583739982763
251, -25403.92, -30284.87, -19145.90, -15458.29, -18037.01, -20609.07, -22938.54, -21095.98, 0.000, 0.000, 0.000, 10:46:22.764, 1583739982764
252, -25811.37, -30307.42, -19241.07, -15567.77, -18593.90, -20646.39, -23120.13, -21321.42, 0.000, 0.000, 0.000, 10:46:22.764, 1583739982764
253, -25798.79, -30298.86, -19248.18, -15564.19, -18602.22, -20633.48, -23089.66, -21330.85, 0.000, 0.000, 0.000, 10:46:22.764, 1583739982764
254, -25228.75, -30227.58, -19139.11, -15474.96, -18004.91, -20598.23, -22816.08, -21061.65, -0.004, -0.018, 0.972, 10:46:22.764, 1583739982764
255, -24967.19, -30217.30, -19075.25, -15410.88, -17646.30, -20578.15, -22717.84, -20910.50, 0.000, 0.000, 0.000, 10:46:22.764, 1583739982764
0, -25397.86, -30288.33, -19143.44, -15453.82, -18032.09, -20600.39, -22934.48, -21086.03, 0.000, 0.000, 0.000, 10:46:22.764, 1583739982764
1, -25809.71, -30314.37, -19244.52, -15570.25, -18598.75, -20643.87, -23121.85, -21317.62, 0.000, 0.000, 0.000, 10:46:22.764, 1583739982764
2, -25802.85, -30301.28, -19253.39, -15567.90, -18612.23, -20634.21, -23096.53, -21330.60, 0.000, 0.000, 0.000, 10:46:22.764, 1583739982764
3, -25233.62, -30236.57, -19145.10, -15478.54, -18013.92, -20601.22, -22821.22, -21063.19, 0.000, 0.000, 0.000, 10:46:22.764, 1583739982764
4, -24962.85, -30221.99, -19076.21, -15408.87, -17648.67, -20577.37, -22714.04, -20905.00, 0.000, 0.000, 0.000, 10:46:22.765, 1583739982765
5, -25390.69, -30285.09, -19142.21, -15447.16, -18028.49, -20598.79, -22929.74, -21079.75, 0.000, 0.000, 0.000, 10:46:22.765, 1583739982765
6, -25806.03, -30308.88, -19241.03, -15565.62, -18593.66, -20641.21, -23115.70, -21310.73, 0.000, 0.000, 0.000, 10:46:22.765, 1583739982765
7, -25804.53, -30300.00, -19252.14, -15564.30, -18612.43, -20630.01, -23092.23, -21326.40, 0.000, 0.000, 0.000, 10:46:22.765, 1583739982765
8, -25234.98, -30236.34, -19142.70, -15473.26, -18015.86, -20593.29, -22817.64, -21059.30, 0.000, -0.018, 0.968, 10:46:22.765, 1583739982765
9, -24957.53, -30222.53, -19071.63, -15403.23, -17645.96, -20569.64, -22709.35, -20899.10, 0.000, 0.000, 0.000, 10:46:22.766, 1583739982766
10, -25385.99, -30278.70, -19136.33, -15445.03, -18019.95, -20591.86, -22922.07, -21072.22, 0.000, 0.000, 0.000, 10:46:22.766, 1583739982766
11, -25804.06, -30307.31, -19241.25, -15569.00, -18589.81, -20643.20, -23113.45, -21311.20, 0.000, 0.000, 0.000, 10:46:22.766, 1583739982766
12, -25804.02, -30303.80, -19255.00, -15573.11, -18613.39, -20635.64, -23090.67, -21333.02, 0.000, 0.000, 0.000, 10:46:22.766, 1583739982766
13, -25240.62, -30235.34, -19147.76, -15482.20, -18017.85, -20601.29, -22815.97, -21068.84, 0.000, 0.000, 0.000, 10:46:22.766, 1583739982766
14, -24963.23, -30216.07, -19077.91, -15415.93, -17643.73, -20580.28, -22707.94, -20909.86, 0.000, 0.000, 0.000, 10:46:22.766, 1583739982766
15, -25383.47, -30279.46, -19141.18, -15455.63, -18012.06, -20600.95, -22920.84, -21080.73, 0.000, 0.000, 0.000, 10:46:22.766, 1583739982766
16, -25800.93, -30300.69, -19241.54, -15572.39, -18583.55, -20644.29, -23107.05, -21312.81, 0.000, 0.000, 0.000, 10:46:22.766, 1583739982766
17, -25806.07, -30283.75, -19255.98, -15575.41, -18617.42, -20637.39, -23089.06, -21335.48, 0.000, 0.000, 0.000, 10:46:22.767, 1583739982767
18, -25243.54, -30230.17, -19148.56, -15487.28, -18025.23, -20605.87, -22817.91, -21074.28, -0.002, -0.012, 0.968, 10:46:22.767, 1583739982767
19, -24960.73, -30226.04, -19078.00, -15417.47, -17646.12, -20582.18, -22707.81, -20912.00, 0.000, 0.000, 0.000, 10:46:22.767, 1583739982767
20, -25380.20, -30286.88, -19142.57, -15455.54, -18013.43, -20601.87, -22921.98, -21081.74, 0.000, 0.000, 0.000, 10:46:22.767, 1583739982767
21, -25796.13, -30316.27, -19244.16, -15578.09, -18589.25, -20649.90, -23113.33, -21319.03, 0.000, 0.000, 0.000, 10:46:22.767, 1583739982767
22, -25808.26, -30305.99, -19256.16, -15583.32, -18625.44, -20641.32, -23095.45, -21340.33, 0.000, 0.000, 0.000, 10:46:22.767, 1583739982767
23, -25249.80, -30239.72, -19151.85, -15493.42, -18037.86, -20607.46, -22824.93, -21076.67, 0.000, 0.000, 0.000, 10:46:22.767, 1583739982767
24, -24957.69, -30222.46, -19079.11, -15419.64, -17651.26, -20581.73, -22709.60, -20908.58, 0.000, 0.000, 0.000, 10:46:22.768, 1583739982768
25, -25377.01, -30279.50, -19137.54, -15449.77, -18008.76, -20597.18, -22918.83, -21073.38, 0.000, 0.000, 0.000, 10:46:22.768, 1583739982768
26, -25793.55, -30303.13, -19233.21, -15562.78, -18577.18, -20637.07, -23103.57, -21302.64, 0.000, 0.000, 0.000, 10:46:22.768, 1583739982768
27, -25809.89, -30301.19, -19250.64, -15568.88, -18618.31, -20631.58, -23091.32, -21331.77, 0.000, 0.000, 0.000, 10:46:22.768, 1583739982768
28, -25248.87, -30238.11, -19142.93, -15474.16, -18028.45, -20592.42, -22819.32, -21066.50, 0.000, -0.018, 0.962, 10:46:22.768, 1583739982768
29, -24957.20, -30223.54, -19071.60, -15404.29, -17642.05, -20568.90, -22703.96, -20898.86, 0.000, 0.000, 0.000, 10:46:22.768, 1583739982768
30, -25374.44, -30281.23, -19135.51, -15442.53, -18005.22, -20590.49, -22916.42, -21066.16, 0.000, 0.000, 0.000, 10:46:22.768, 1583739982768
31, -25797.44, -30302.28, -19241.90, -15570.05, -18584.67, -20641.95, -23110.85, -21306.17, 0.000, 0.000, 0.000, 10:46:22.768, 1583739982768
32, -25816.40, -30293.97, -19264.07, -15584.11, -18634.36, -20641.63, -23101.44, -21339.84, 0.000, 0.000, 0.000, 10:46:22.768, 1583739982768
33, -25256.49, -30230.09, -19156.43, -15491.19, -18047.20, -20605.60, -22831.68, -21078.61, 0.000, 0.000, 0.000, 10:46:22.768, 1583739982768
34, -24955.81, -30214.91, -19080.92, -15416.47, -17650.35, -20581.20, -22709.57, -20908.47, 0.000, 0.000, 0.000, 10:46:22.769, 1583739982769
35, -25366.90, -30280.96, -19142.35, -15455.83, -18003.23, -20602.25, -22916.01, -21074.03, 0.000, 0.000, 0.000, 10:46:22.769, 1583739982769
36, -25797.29, -30315.31, -19246.17, -15583.72, -18581.61, -20654.64, -23109.49, -21315.61, 0.000, 0.000, 0.000, 10:46:22.769, 1583739982769
37, -25819.86, -30305.37, -19263.07, -15590.05, -18634.74, -20650.08, -23099.70, -21348.84, 0.000, 0.000, 0.000, 10:46:22.769, 1583739982769
38, -25264.38, -30236.77, -19156.81, -15495.61, -18050.73, -20613.96, -22832.04, -21089.90, -0.002, -0.018, 0.962, 10:46:22.769, 1583739982769
39, -24953.11, -30211.42, -19074.06, -15409.49, -17645.63, -20581.31, -22703.05, -20910.32, 0.000, 0.000, 0.000, 10:46:22.769, 1583739982769
40, -25362.88, -30275.24, -19133.21, -15442.73, -17994.96, -20598.47, -22911.90, -21070.70, 0.000, 0.000, 0.000, 10:46:22.769, 1583739982769
41, -25786.94, -30309.68, -19233.85, -15561.84, -18572.33, -20642.15, -23104.17, -21306.22, 0.000, 0.000, 0.000, 10:46:22.769, 1583739982769
42, -25811.48, -30302.17, -19251.15, -15570.40, -18627.74, -20634.62, -23095.61, -21338.40, 0.000, 0.000, 0.000, 10:46:22.769, 1583739982769
43, -25264.53, -30240.77, -19146.04, -15481.96, -18046.11, -20600.87, -22827.99, -21079.01, 0.000, 0.000, 0.000, 10:46:22.770, 1583739982770
44, -24955.92, -30216.23, -19069.52, -15407.77, -17639.10, -20576.01, -22700.97, -20902.72, 0.000, 0.000, 0.000, 10:46:22.770, 1583739982770
45, -25363.69, -30275.46, -19130.21, -15440.94, -17981.11, -20594.27, -22906.54, -21063.37, 0.000, 0.000, 0.000, 10:46:22.770, 1583739982770
46, -25792.15, -30305.41, -19236.51, -15567.90, -18565.27, -20645.21, -23103.68, -21306.31, 0.000, 0.000, 0.000, 10:46:22.770, 1583739982770
47, -25829.47, -30300.11, -19263.22, -15584.89, -18636.44, -20647.47, -23104.04, -21349.45, 0.000, 0.000, 0.000, 10:46:22.770, 1583739982770
48, -25273.54, -30248.30, -19155.96, -15490.36, -18052.65, -20609.13, -22833.16, -21088.42, 0.000, 0.000, 0.000, 10:46:22.770, 1583739982770
49, -24949.57, -30229.46, -19079.65, -15416.22, -17648.09, -20584.17, -22705.66, -20910.82, -0.002, -0.020, 0.966, 10:46:22.771, 1583739982771
50, -25351.26, -30289.70, -19136.69, -15446.19, -17985.93, -20599.61, -22909.80, -21066.94, 0.000, 0.000, 0.000, 10:46:22.771, 1583739982771
51, -25784.26, -30317.88, -19238.35, -15565.24, -18563.97, -20644.65, -23103.34, -21302.75, 0.000, 0.000, 0.000, 10:46:22.771, 1583739982771
52, -25813.98, -30303.89, -19255.94, -15572.01, -18629.06, -20635.73, -23095.52, -21336.71, 0.000, 0.000, 0.000, 10:46:22.771, 1583739982771
53, -25272.27, -30244.35, -19152.20, -15483.43, -18054.80, -20601.02, -22827.84, -21079.84, 0.000, 0.000, 0.000, 10:46:22.771, 1583739982771
54, -24957.42, -30222.26, -19075.60, -15411.30, -17645.16, -20577.95, -22698.80, -20901.76, 0.000, 0.000, 0.000, 10:46:22.771, 1583739982771
55, -25352.15, -30277.83, -19134.01, -15443.24, -17978.74, -20596.21, -22903.21, -21058.79, 0.000, 0.000, 0.000, 10:46:22.771, 1583739982771
56, -25785.04, -30315.33, -19241.99, -15574.96, -18567.30, -20649.55, -23105.38, -21302.75, 0.000, 0.000, 0.000, 10:46:22.772, 1583739982772
57, -25825.23, -30308.67, -19263.72, -15584.73, -18643.79, -20645.59, -23105.82, -21343.79, 0.000, 0.000, 0.000, 10:46:22.772, 1583739982772
58, -25273.70, -30238.09, -19156.65, -15485.20, -18065.89, -20606.23, -22835.68, -21084.71, 0.000, 0.000, 0.000, 10:46:22.772, 1583739982772
59, -24949.15, -30222.08, -19077.35, -15413.34, -17649.41, -20579.74, -22700.81, -20901.58, 0.000, -0.022, 0.976, 10:46:22.772, 1583739982772
60, -25349.27, -30280.89, -19135.19, -15444.63, -17975.16, -20596.42, -22901.87, -21057.06, 0.000, 0.000, 0.000, 10:46:22.772, 1583739982772
61, -25775.67, -30317.10, -19233.99, -15564.44, -18554.12, -20641.37, -23092.37, -21294.37, 0.000, 0.000, 0.000, 10:46:22.773, 1583739982773
62, -25816.58, -30310.06, -19253.84, -15575.23, -18633.73, -20636.09, -23088.84, -21335.90, 0.000, 0.000, 0.000, 10:46:22.773, 1583739982773
63, -25276.76, -30242.56, -19149.72, -15488.13, -18061.24, -20603.77, -22825.18, -21083.19, 0.000, 0.000, 0.000, 10:46:22.773, 1583739982773
64, -24947.34, -30223.09, -19069.35, -15411.01, -17638.88, -20577.46, -22691.47, -20898.37, 0.000, 0.000, 0.000, 10:46:22.774, 1583739982774
65, -25341.00, -30279.88, -19124.91, -15431.96, -17962.58, -20589.51, -22892.03, -21048.73, 0.000, 0.000, 0.000, 10:46:22.774, 1583739982774
66, -25775.88, -30313.21, -19227.75, -15552.92, -18550.49, -20637.34, -23091.09, -21291.60, 0.000, 0.000, 0.000, 10:46:22.774, 1583739982774
67, -25824.09, -30312.63, -19251.40, -15567.23, -18635.01, -20635.49, -23096.39, -21337.06, 0.000, 0.000, 0.000, 10:46:22.774, 1583739982774
68, -25277.97, -30245.78, -19147.91, -15469.02, -18061.86, -20594.56, -22827.86, -21077.61, 0.000, 0.000, 0.000, 10:46:22.774, 1583739982774
69, -24944.37, -30222.29, -19070.40, -15393.78, -17638.81, -20568.88, -22689.93, -20892.60, -0.006, -0.022, 0.972, 10:46:22.775, 1583739982775
70, -25339.59, -30282.92, -19129.00, -15428.34, -17961.71, -20588.59, -22892.23, -21046.63, 0.000, 0.000, 0.000, 10:46:22.775, 1583739982775
71, -25775.12, -30314.06, -19231.48, -15556.75, -18546.85, -20638.73, -23090.20, -21289.79, 0.000, 0.000, 0.000, 10:46:22.775, 1583739982775
72, -25832.89, -30311.11, -19258.53, -15574.07, -18641.89, -20639.13, -23099.01, -21340.01, 0.000, 0.000, 0.000, 10:46:22.776, 1583739982776
73, -25296.74, -30248.08, -19156.12, -15480.35, -18074.22, -20603.21, -22838.50, -21086.17, 0.000, 0.000, 0.000, 10:46:22.776, 1583739982776
74, -24954.31, -30223.49, -19074.62, -15403.88, -17644.89, -20576.84, -22697.93, -20896.98, 0.000, 0.000, 0.000, 10:46:23.236, 1583739983236
75, -25337.31, -30276.26, -19126.97, -15428.45, -17959.76, -20589.67, -22892.57, -21042.85, 0.000, 0.000, 0.000, 10:46:23.237, 1583739983237
76, -25776.52, -30313.52, -19234.39, -15554.62, -18549.91, -20641.77, -23093.40, -21288.67, 0.000, 0.000, 0.000, 10:46:23.237, 1583739983237
77, -25838.12, -30320.56, -19264.54, -15579.61, -18647.59, -20646.37, -23102.38, -21344.73, 0.000, 0.000, 0.000, 10:46:23.237, 1583739983237
