%OpenBCI Raw EEG Data
%Number of channels = 8
%Sample Rate = 250.0 Hz
%First Column = SampleIndex
%Last Column = Timestamp 
%Other Columns = EEG data in microvolts followed by Accel Data (in G) interleaved with Aux Data
0, 0.00, 0.00, 0.00, 0.00, 0.00, 0.00, 0.00, 0.00, 0.004, -0.014, 0.970, 10:33:35.413, 1583739215413
1, -29497.75, -33729.83, -22983.11, -18655.06, -23938.90, -23179.81, -26242.33, -25863.61, 0.000, 0.000, 0.000, 10:33:35.898, 1583739215898
2, -28846.58, -33642.37, -22820.04, -18513.19, -23205.07, -23074.98, -25863.67, -25481.14, 0.000, 0.000, 0.000, 10:33:35.899, 1583739215899
3, -28235.37, -33595.36, -22640.89, -18377.65, -22443.99, -22972.16, -25556.54, -25075.42, 0.000, 0.000, 0.000, 10:33:35.899, 1583739215899
4, -28557.01, -33653.70, -22690.17, -18398.30, -22714.54, -22961.10, -25766.49, -25209.28, 0.000, 0.000, 0.000, 10:33:35.899, 1583739215899
5, -29276.80, -33721.29, -22890.06, -18586.30, -23611.73, -23130.39, -26156.95, -25675.16, 0.000, 0.000, 0.000, 10:33:35.899, 1583739215899
6, -29495.94, -33729.96, -22973.90, -18653.00, -23934.49, -23173.44, -26238.24, -25857.68, 0.000, 0.000, 0.000, 10:33:35.899, 1583739215899
7, -28855.34, -33655.22, -22820.21, -18534.89, -23214.23, -23084.90, -25867.81, -25491.36, 0.000, 0.000, 0.000, 10:33:35.899, 1583739215899
8, -28237.27, -33595.59, -22645.58, -18390.61, -22449.22, -22979.36, -25561.03, -25083.84, 0.002, -0.014, 0.972, 10:33:35.900, 1583739215900
9, -28548.25, -33650.59, -22693.41, -18399.33, -22711.16, -22961.72, -25766.51, -25208.30, 0.000, 0.000, 0.000, 10:33:35.900, 1583739215900
10, -29268.40, -33720.62, -22892.52, -18581.72, -23608.02, -23128.11, -26155.72, -25671.00, 0.000, 0.000, 0.000, 10:33:35.900, 1583739215900
11, -29496.05, -33726.99, -22974.02, -18642.65, -23937.51, -23167.72, -26237.97, -25855.76, 0.000, 0.000, 0.000, 10:33:35.900, 1583739215900
12, -28855.81, -33642.39, -22814.63, -18516.68, -23215.95, -23073.48, -25865.62, -25487.25, 0.000, 0.000, 0.000, 10:33:35.900, 1583739215900
13, -28239.62, -33589.48, -22646.36, -18391.17, -22453.96, -22981.19, -25566.08, -25086.64, 0.000, 0.000, 0.000, 10:33:35.900, 1583739215900
14, -28545.70, -33650.59, -22684.85, -18394.81, -22700.97, -22959.29, -25763.96, -25205.10, 0.000, 0.000, 0.000, 10:33:35.904, 1583739215904
15, -29264.02, -33725.63, -22884.10, -18579.57, -23597.90, -23127.19, -26149.73, -25668.68, 0.000, 0.000, 0.000, 10:33:35.904, 1583739215904
16, -29497.26, -33735.64, -22975.89, -18654.41, -23938.96, -23176.30, -26237.68, -25863.29, 0.000, 0.000, 0.000, 10:33:35.905, 1583739215905
17, -28866.52, -33661.14, -22829.04, -18540.55, -23231.53, -23089.37, -25874.69, -25504.95, 0.000, 0.000, 0.000, 10:33:35.905, 1583739215905
18, -28249.68, -33608.28, -22660.35, -18410.39, -22466.47, -22994.07, -25572.70, -25100.27, 0.008, -0.014, 0.974, 10:33:35.905, 1583739215905
19, -28553.55, -33663.27, -22708.54, -18418.89, -22715.88, -22976.97, -25777.53, -25220.63, 0.000, 0.000, 0.000, 10:33:35.905, 1583739215905
20, -29264.58, -33725.07, -22895.14, -18587.46, -23602.68, -23133.67, -26156.10, -25673.39, 0.000, 0.000, 0.000, 10:33:35.905, 1583739215905
21, -29499.72, -33733.14, -22978.08, -18650.45, -23944.89, -23175.18, -26238.62, -25860.77, 0.000, 0.000, 0.000, 10:33:35.905, 1583739215905
22, -28873.07, -33656.00, -22830.32, -18533.95, -23239.71, -23086.11, -25876.46, -25502.13, 0.000, 0.000, 0.000, 10:33:35.906, 1583739215906
23, -28247.80, -33593.46, -22656.17, -18406.71, -22466.10, -22993.17, -25568.94, -25095.58, 0.000, 0.000, 0.000, 10:33:35.906, 1583739215906
24, -28545.39, -33653.88, -22700.45, -18416.99, -22708.52, -22977.53, -25769.35, -25213.15, 0.000, 0.000, 0.000, 10:33:35.906, 1583739215906
25, -29264.27, -33729.09, -22896.32, -18594.46, -23605.10, -23140.02, -26157.98, -25672.61, 0.000, 0.000, 0.000, 10:33:35.906, 1583739215906
26, -29503.45, -33734.23, -22981.66, -18655.57, -23955.44, -23179.32, -26246.56, -25863.34, 0.000, 0.000, 0.000, 10:33:35.906, 1583739215906
27, -28878.86, -33655.07, -22834.47, -18530.94, -23252.07, -23087.25, -25885.17, -25504.26, 0.000, 0.000, 0.000, 10:33:35.906, 1583739215906
28, -28255.22, -33600.84, -22667.10, -18404.96, -22477.74, -22994.78, -25580.23, -25096.47, 0.010, -0.016, 0.968, 10:33:35.907, 1583739215907
29, -28542.62, -33653.39, -22703.05, -18414.80, -22706.51, -22973.46, -25771.25, -25205.55, 0.000, 0.000, 0.000, 10:33:35.907, 1583739215907
30, -29265.85, -33729.81, -22899.00, -18594.39, -23601.43, -23139.96, -26159.68, -25668.88, 0.000, 0.000, 0.000, 10:33:35.907, 1583739215907
31, -29507.88, -33735.51, -22984.88, -18650.56, -23952.66, -23177.35, -26248.01, -25860.70, 0.000, 0.000, 0.000, 10:33:35.907, 1583739215907
32, -28884.80, -33652.43, -22841.11, -18535.16, -23258.08, -23088.70, -25888.44, -25506.33, 0.000, 0.000, 0.000, 10:33:35.907, 1583739215907
33, -28250.62, -33592.77, -22662.86, -18411.18, -22478.93, -22997.24, -25578.84, -25099.20, 0.000, 0.000, 0.000, 10:33:35.907, 1583739215907
34, -28534.06, -33646.17, -22695.78, -18412.32, -22702.08, -22972.54, -25769.46, -25206.75, 0.000, 0.000, 0.000, 10:33:35.908, 1583739215908
35, -29253.80, -33725.38, -22893.86, -18590.57, -23593.61, -23136.60, -26155.63, -25668.18, 0.000, 0.000, 0.000, 10:33:35.908, 1583739215908
36, -29505.46, -33733.36, -22984.05, -18654.86, -23951.62, -23182.67, -26249.87, -25867.83, 0.000, 0.000, 0.000, 10:33:35.908, 1583739215908
37, -28893.81, -33657.75, -22838.47, -18539.14, -23261.19, -23095.14, -25893.36, -25518.61, 0.000, 0.000, 0.000, 10:33:35.908, 1583739215908
38, -28258.39, -33605.31, -22662.79, -18412.63, -22476.89, -23003.32, -25579.74, -25108.41, 0.004, -0.024, 0.974, 10:33:35.908, 1583739215908
39, -28543.58, -33663.31, -22698.75, -18418.60, -22696.21, -22982.55, -25770.04, -25215.52, 0.000, 0.000, 0.000, 10:33:35.909, 1583739215909
40, -29260.82, -33728.71, -22894.42, -18595.06, -23587.79, -23142.46, -26157.84, -25673.53, 0.000, 0.000, 0.000, 10:33:35.909, 1583739215909
41, -29513.04, -33734.68, -22985.33, -18662.07, -23956.40, -23185.55, -26254.34, -25873.57, 0.000, 0.000, 0.000, 10:33:35.909, 1583739215909
42, -28904.89, -33663.98, -22842.74, -18546.11, -23272.14, -23096.97, -25898.05, -25526.18, 0.000, 0.000, 0.000, 10:33:35.909, 1583739215909
43, -28262.69, -33605.33, -22665.03, -18415.49, -22485.90, -23002.74, -25580.14, -25110.96, 0.000, 0.000, 0.000, 10:33:35.909, 1583739215909
44, -28535.15, -33652.38, -22697.82, -18409.72, -22692.74, -22974.29, -25764.59, -25207.04, 0.000, 0.000, 0.000, 10:33:35.909, 1583739215909
45, -29259.82, -33729.59, -22898.11, -18591.11, -23587.82, -23139.75, -26158.07, -25667.71, 0.000, 0.000, 0.000, 10:33:35.910, 1583739215910
46, -29518.45, -33742.66, -22994.09, -18670.79, -23965.63, -23193.87, -26261.09, -25876.26, 0.000, 0.000, 0.000, 10:33:35.910, 1583739215910
47, -28909.57, -33665.35, -22847.21, -18550.09, -23281.15, -23101.02, -25902.29, -25526.85, 0.000, 0.000, 0.000, 10:33:35.910, 1583739215910
48, -28262.46, -33596.64, -22667.06, -18405.03, -22487.33, -22995.05, -25577.48, -25101.21, 0.006, -0.022, 0.972, 10:33:35.910, 1583739215910
49, -28525.09, -33644.67, -22694.89, -18401.54, -22685.34, -22964.34, -25757.52, -25192.61, 0.000, 0.000, 0.000, 10:33:35.911, 1583739215911
50, -29243.61, -33721.11, -22887.56, -18586.41, -23573.47, -23131.06, -26147.83, -25653.05, 0.000, 0.000, 0.000, 10:33:35.911, 1583739215911
51, -29511.92, -33735.44, -22979.29, -18658.32, -23954.68, -23182.04, -26250.69, -25863.22, 0.000, 0.000, 0.000, 10:33:35.911, 1583739215911
52, -28906.17, -33656.07, -22834.97, -18532.70, -23274.40, -23086.78, -25893.62, -25513.67, 0.000, 0.000, 0.000, 10:33:35.911, 1583739215911
53, -28260.43, -33594.65, -22662.57, -18404.09, -22481.70, -22995.07, -25572.54, -25096.54, 0.000, 0.000, 0.000, 10:33:35.911, 1583739215911
54, -28526.01, -33648.34, -22689.57, -18404.40, -22674.93, -22968.90, -25749.92, -25190.28, 0.000, 0.000, 0.000, 10:33:35.912, 1583739215912
55, -29243.95, -33719.06, -22877.97, -18569.81, -23559.99, -23123.08, -26134.55, -25641.76, 0.000, 0.000, 0.000, 10:33:35.912, 1583739215912
56, -29513.15, -33733.96, -22977.14, -18644.28, -23949.60, -23175.49, -26244.14, -25856.12, 0.000, 0.000, 0.000, 10:33:35.912, 1583739215912
57, -28913.81, -33658.17, -22833.42, -18526.82, -23275.81, -23084.01, -25892.04, -25514.81, 0.000, 0.000, 0.000, 10:33:35.912, 1583739215912
58, -28263.76, -33599.63, -22658.92, -18400.31, -22481.79, -22990.49, -25573.01, -25097.48, 0.006, -0.024, 0.970, 10:33:35.912, 1583739215912
59, -28517.96, -33650.55, -22692.45, -18406.44, -22673.38, -22966.97, -25752.81, -25189.88, 0.000, 0.000, 0.000, 10:33:35.912, 1583739215912
60, -29242.27, -33723.06, -22888.68, -18591.89, -23560.84, -23139.02, -26144.75, -25653.28, 0.000, 0.000, 0.000, 10:33:35.913, 1583739215913
61, -29523.12, -33740.67, -22988.08, -18665.52, -23957.02, -23193.02, -26256.37, -25872.41, 0.000, 0.000, 0.000, 10:33:35.913, 1583739215913
62, -28930.09, -33670.49, -22839.21, -18540.79, -23287.77, -23095.25, -25902.01, -25530.03, 0.000, 0.000, 0.000, 10:33:35.913, 1583739215913
63, -28277.97, -33611.59, -22652.40, -18403.96, -22482.35, -22994.54, -25572.32, -25106.62, 0.000, 0.000, 0.000, 10:33:35.913, 1583739215913
64, -28532.94, -33664.41, -22685.50, -18398.53, -22663.64, -22964.14, -25748.90, -25192.52, 0.000, 0.000, 0.000, 10:33:35.913, 1583739215913
65, -29248.17, -33726.77, -22880.61, -18575.66, -23550.63, -23128.62, -26137.55, -25646.32, 0.000, 0.000, 0.000, 10:33:35.913, 1583739215913
66, -29528.20, -33741.99, -22979.13, -18656.24, -23954.16, -23187.39, -26250.49, -25867.58, 0.000, 0.000, 0.000, 10:33:35.914, 1583739215914
67, -28939.00, -33671.32, -22847.44, -18546.61, -23298.05, -23100.91, -25908.40, -25536.26, 0.000, 0.000, 0.000, 10:33:35.914, 1583739215914
68, -28281.48, -33612.89, -22671.08, -18415.74, -22495.67, -23006.02, -25584.32, -25115.45, 0.004, -0.020, 0.964, 10:33:35.914, 1583739215914
69, -28526.93, -33665.91, -22697.46, -18411.13, -22667.48, -22974.80, -25756.12, -25197.21, 0.000, 0.000, 0.000, 10:33:35.914, 1583739215914
70, -29248.91, -33737.52, -22888.25, -18591.53, -23554.13, -23143.04, -26148.43, -25655.64, 0.000, 0.000, 0.000, 10:33:35.914, 1583739215914
71, -29532.20, -33751.94, -22992.14, -18674.81, -23964.22, -23204.37, -26267.72, -25881.62, 0.000, 0.000, 0.000, 10:33:35.915, 1583739215915
72, -28947.07, -33680.05, -22866.48, -18571.06, -23319.82, -23121.22, -25929.95, -25556.13, 0.000, 0.000, 0.000, 10:33:35.915, 1583739215915
73, -28279.81, -33607.16, -22681.54, -18428.05, -22506.89, -23015.48, -25595.52, -25123.79, 0.000, 0.000, 0.000, 10:33:35.915, 1583739215915
74, -28515.71, -33646.50, -22693.61, -18408.49, -22662.32, -22972.65, -25754.71, -25191.67, 0.000, 0.000, 0.000, 10:33:35.915, 1583739215915
75, -29233.96, -33717.80, -22875.78, -18577.14, -23538.58, -23129.16, -26132.68, -25637.38, 0.000, 0.000, 0.000, 10:33:35.915, 1583739215915
76, -29524.06, -33736.05, -22979.20, -18652.75, -23951.73, -23184.86, -26249.96, -25859.76, 0.000, 0.000, 0.000, 10:33:35.915, 1583739215915
77, -28940.72, -33660.63, -22846.63, -18545.15, -23309.58, -23097.20, -25912.98, -25534.16, 0.000, 0.000, 0.000, 10:33:35.915, 1583739215915
78, -28276.81, -33597.71, -22664.22, -18408.99, -22494.28, -22996.21, -25578.46, -25105.86, 0.000, 0.000, 0.000, 10:33:35.915, 1583739215915
79, -28511.30, -33650.08, -22685.97, -18390.21, -22652.51, -22955.58, -25740.76, -25177.65, 0.000, -0.016, 0.974, 10:33:35.916, 1583739215916
80, -29222.58, -33716.96, -22868.00, -18558.03, -23527.15, -23115.37, -26122.42, -25627.12, 0.000, 0.000, 0.000, 10:33:35.916, 1583739215916
81, -29521.83, -33737.43, -22973.48, -18644.55, -23950.03, -23180.10, -26247.68, -25858.98, 0.000, 0.000, 0.000, 10:33:35.916, 1583739215916
82, -28950.18, -33665.79, -22841.63, -18530.04, -23311.82, -23087.14, -25911.30, -25532.96, 0.000, 0.000, 0.000, 10:33:35.916, 1583739215916
83, -28284.63, -33604.98, -22656.60, -18392.82, -22496.00, -22984.41, -25575.36, -25102.62, 0.000, 0.000, 0.000, 10:33:35.916, 1583739215916
84, -28513.18, -33651.58, -22681.70, -18388.76, -22649.18, -22951.24, -25740.40, -25176.36, 0.000, 0.000, 0.000, 10:33:35.916, 1583739215916
85, -29223.27, -33718.54, -22872.81, -18569.29, -23529.19, -23120.64, -26127.22, -25628.08, 0.000, 0.000, 0.000, 10:33:35.917, 1583739215917
86, -29520.71, -33734.46, -22980.01, -18662.86, -23955.62, -23191.86, -26251.14, -25863.81, 0.000, 0.000, 0.000, 10:33:35.917, 1583739215917
87, -28948.82, -33664.97, -22847.64, -18546.34, -23319.91, -23097.98, -25914.99, -25542.46, 0.000, 0.000, 0.000, 10:33:35.917, 1583739215917
88, -28284.72, -33603.70, -22662.59, -18396.29, -22501.86, -22988.93, -25577.28, -25109.81, 0.000, 0.000, 0.000, 10:33:35.917, 1583739215917
89, -28514.68, -33655.63, -22682.62, -18388.42, -22645.40, -22952.83, -25737.05, -25180.27, -0.002, -0.018, 0.974, 10:33:35.917, 1583739215917
90, -29224.86, -33730.52, -22879.18, -18577.74, -23524.07, -23130.90, -26126.55, -25634.54, 0.000, 0.000, 0.000, 10:33:35.917, 1583739215917
91, -29524.46, -33741.10, -22984.32, -18660.04, -23955.86, -23196.24, -26253.22, -25867.70, 0.000, 0.000, 0.000, 10:33:35.918, 1583739215918
92, -28961.11, -33671.52, -22846.75, -18538.47, -23321.21, -23097.76, -25918.17, -25547.04, 0.000, 0.000, 0.000, 10:33:35.918, 1583739215918
93, -28290.02, -33605.20, -22664.22, -18398.97, -22504.38, -22992.61, -25580.68, -25116.70, 0.000, 0.000, 0.000, 10:33:35.918, 1583739215918
94, -28507.93, -33650.73, -22687.51, -18386.70, -22644.37, -22951.02, -25740.13, -25181.88, 0.000, 0.000, 0.000, 10:33:35.918, 1583739215918
95, -29211.85, -33725.12, -22876.65, -18570.39, -23517.30, -23126.01, -26123.53, -25628.46, 0.000, 0.000, 0.000, 10:33:35.918, 1583739215918
96, -29519.66, -33748.12, -22986.15, -18666.48, -23955.04, -23203.77, -26254.58, -25870.22, 0.000, 0.000, 0.000, 10:33:35.919, 1583739215919
97, -28966.38, -33677.68, -22859.33, -18552.51, -23334.19, -23109.56, -25929.86, -25558.15, 0.000, 0.000, 0.000, 10:33:35.919, 1583739215919
98, -28293.28, -33611.79, -22673.81, -18407.96, -22513.82, -22999.34, -25593.15, -25124.79, 0.000, 0.000, 0.000, 10:33:35.919, 1583739215919
99, -28512.04, -33663.71, -22687.33, -18392.02, -22644.46, -22955.38, -25748.07, -25185.10, 0.000, -0.012, 0.974, 10:33:35.919, 1583739215919
100, -29210.85, -33727.17, -22872.38, -18568.73, -23508.51, -23129.83, -26125.99, -25625.47, 0.000, 0.000, 0.000, 10:33:35.919, 1583739215919
101, -29516.35, -33741.70, -22982.44, -18663.53, -23949.04, -23206.12, -26255.77, -25865.46, 0.000, 0.000, 0.000, 10:33:35.920, 1583739215920
102, -28971.59, -33677.28, -22854.79, -18550.29, -23337.54, -23108.55, -25930.68, -25557.34, 0.000, 0.000, 0.000, 10:33:35.920, 1583739215920
103, -28301.15, -33611.01, -22673.47, -18406.10, -22517.86, -22998.76, -25595.47, -25125.75, 0.000, 0.000, 0.000, 10:33:35.920, 1583739215920
104, -28506.68, -33656.68, -22696.01, -18390.05, -22650.10, -22953.77, -25750.08, -25181.74, 0.000, 0.000, 0.000, 10:33:35.920, 1583739215920
105, -29202.04, -33725.59, -22888.88, -18578.30, -23516.05, -23137.38, -26131.56, -25622.45, 0.000, 0.000, 0.000, 10:33:35.920, 1583739215920
106, -29513.67, -33744.27, -22990.87, -18671.33, -23953.56, -23212.04, -26260.79, -25860.45, 0.000, 0.000, 0.000, 10:33:35.921, 1583739215921
107, -28977.96, -33682.89, -22862.35, -18553.40, -23347.07, -23110.34, -25938.04, -25554.62, 0.000, 0.000, 0.000, 10:33:35.921, 1583739215921
108, -28307.21, -33614.16, -22678.24, -18408.72, -22524.34, -22997.82, -25598.16, -25122.80, 0.000, 0.000, 0.000, 10:33:35.921, 1583739215921
109, -28510.79, -33660.07, -22680.96, -18392.24, -22637.44, -22949.90, -25740.71, -25177.27, 0.004, -0.020, 0.974, 10:33:35.921, 1583739215921
110, -29201.37, -33730.05, -22870.64, -18583.08, -23500.62, -23135.64, -26120.34, -25620.62, 0.000, 0.000, 0.000, 10:33:35.921, 1583739215921
111, -29517.80, -33747.47, -22978.33, -18670.34, -23945.02, -23210.23, -26254.11, -25861.28, 0.000, 0.000, 0.000, 10:33:35.921, 1583739215921
112, -28987.48, -33681.48, -22850.77, -18542.94, -23339.11, -23102.96, -25934.46, -25555.91, 0.000, 0.000, 0.000, 10:33:35.922, 1583739215922
113, -28316.26, -33621.00, -22669.00, -18403.73, -22518.40, -22993.66, -25595.21, -25126.51, 0.000, 0.000, 0.000, 10:33:35.922, 1583739215922
114, -28513.11, -33669.04, -22681.41, -18386.41, -22628.32, -22943.97, -25738.64, -25176.00, 0.000, 0.000, 0.000, 10:33:35.924, 1583739215924
115, -29195.04, -33732.43, -22861.86, -18559.88, -23478.43, -23119.68, -26108.78, -25605.31, 0.000, 0.000, 0.000, 10:33:35.924, 1583739215924
116, -29514.83, -33748.05, -22973.44, -18655.46, -23933.69, -23200.04, -26248.01, -25852.27, 0.000, 0.000, 0.000, 10:33:35.925, 1583739215925
117, -28992.11, -33685.53, -22851.78, -18544.97, -23345.97, -23100.79, -25936.65, -25559.38, 0.000, 0.000, 0.000, 10:33:35.925, 1583739215925
118, -28315.44, -33614.30, -22670.75, -18401.47, -22524.66, -22990.04, -25595.81, -25128.52, 0.000, 0.000, 0.000, 10:33:35.925, 1583739215925
119, -28513.16, -33663.04, -22692.29, -18386.57, -22634.78, -22946.23, -25745.54, -25181.36, 0.002, -0.024, 0.974, 10:33:35.925, 1583739215925
120, -29196.72, -33735.62, -22870.84, -18566.48, -23480.87, -23127.44, -26116.20, -25612.35, 0.000, 0.000, 0.000, 10:33:35.925, 1583739215925
121, -29516.91, -33761.13, -22981.59, -18666.08, -23938.74, -23211.23, -26252.93, -25860.30, 0.000, 0.000, 0.000, 10:33:36.379, 1583739216379
122, -28998.95, -33699.03, -22865.65, -18557.22, -23358.49, -23113.42, -25944.61, -25569.90, 0.000, 0.000, 0.000, 10:33:36.380, 1583739216380
123, -28324.29, -33630.12, -22683.11, -18414.42, -22533.37, -23002.00, -25605.84, -25137.93, 0.000, 0.000, 0.000, 10:33:36.380, 1583739216380
124, -28514.72, -33674.96, -22694.93, -18396.74, -22635.97, -22953.32, -25749.10, -25186.19, 0.000, 0.000, 0.000, 10:33:36.380, 1583739216380
125, -29188.72, -33738.86, -22877.17, -18574.39, -23482.12, -23133.70, -26116.96, -25614.41, 0.000, 0.000, 0.000, 10:33:36.380, 1583739216380
126, -29511.48, -33753.84, -22985.88, -18663.95, -23942.49, -23214.43, -26254.60, -25860.90, 0.000, 0.000, 0.000, 10:33:36.380, 1583739216380
127, -29002.95, -33694.92, -22863.84, -18549.85, -23363.79, -23113.80, -25949.55, -25574.35, 0.000, 0.000, 0.000, 10:33:36.381, 1583739216381
128, -28324.58, -33631.28, -22675.80, -18404.63, -22532.19, -22998.31, -25605.53, -25140.44, 0.000, 0.000, 0.000, 10:33:36.381, 1583739216381
129, -28509.49, -33680.59, -22688.45, -18386.68, -22627.88, -22946.63, -25745.52, -25183.22, 0.002, -0.020, 0.972, 10:33:36.381, 1583739216381
130, -29188.58, -33740.61, -22873.14, -18571.04, -23477.15, -23131.42, -26117.83, -25612.66, 0.000, 0.000, 0.000, 10:33:36.385, 1583739216385
131, -29514.67, -33749.05, -22987.32, -18674.90, -23948.64, -23220.22, -26261.49, -25865.53, 0.000, 0.000, 0.000, 10:33:36.385, 1583739216385
132, -29006.57, -33688.37, -22865.50, -18557.80, -23373.15, -23112.78, -25951.47, -25576.94, 0.000, 0.000, 0.000, 10:33:36.385, 1583739216385
133, -28330.63, -33629.81, -22683.11, -18413.48, -22542.90, -22997.37, -25606.63, -25142.16, 0.000, 0.000, 0.000, 10:33:36.385, 1583739216385
134, -28510.34, -33674.11, -22689.97, -18389.27, -22626.96, -22940.78, -25741.74, -25178.30, 0.000, 0.000, 0.000, 10:33:36.386, 1583739216386
135, -29183.84, -33738.95, -22872.67, -18575.55, -23470.05, -23129.12, -26111.29, -25605.35, 0.000, 0.000, 0.000, 10:33:36.386, 1583739216386
136, -29512.62, -33752.72, -22984.48, -18674.75, -23942.45, -23216.96, -26251.77, -25856.54, 0.000, 0.000, 0.000, 10:33:36.386, 1583739216386
137, -29014.49, -33688.53, -22864.74, -18552.21, -23374.49, -23108.06, -25947.07, -25570.30, 0.000, 0.000, 0.000, 10:33:36.386, 1583739216386
138, -28333.56, -33624.69, -22677.72, -18406.30, -22541.42, -22992.14, -25602.00, -25137.08, 0.000, 0.000, 0.000, 10:33:36.386, 1583739216386
139, -28500.80, -33663.38, -22676.87, -18376.02, -22611.20, -22931.28, -25729.85, -25167.17, 0.000, -0.022, 0.972, 10:33:36.386, 1583739216386
140, -29172.74, -33726.05, -22859.40, -18554.23, -23448.74, -23113.98, -26097.90, -25590.11, 0.000, 0.000, 0.000, 10:33:36.386, 1583739216386
141, -29508.15, -33744.25, -22975.38, -18659.64, -23931.14, -23205.63, -26245.87, -25846.13, 0.000, 0.000, 0.000, 10:33:36.387, 1583739216387
142, -29015.71, -33682.42, -22860.29, -18547.61, -23375.43, -23102.40, -25947.22, -25568.16, 0.000, 0.000, 0.000, 10:33:36.387, 1583739216387
143, -28337.45, -33625.98, -22677.74, -18401.65, -22538.76, -22989.17, -25602.34, -25135.63, 0.000, 0.000, 0.000, 10:33:36.387, 1583739216387
144, -28504.44, -33673.48, -22683.53, -18373.11, -22611.40, -22930.79, -25733.32, -25167.91, 0.000, 0.000, 0.000, 10:33:36.387, 1583739216387
145, -29177.43, -33736.83, -22865.03, -18560.57, -23450.35, -23120.22, -26104.87, -25593.57, 0.000, 0.000, 0.000, 10:33:36.387, 1583739216387
146, -29513.51, -33752.05, -22985.17, -18674.30, -23938.72, -23217.99, -26255.61, -25854.84, 0.000, 0.000, 0.000, 10:33:36.387, 1583739216387
147, -29023.56, -33689.64, -22873.61, -18565.96, -23391.53, -23114.74, -25960.84, -25582.53, 0.000, 0.000, 0.000, 10:33:36.387, 1583739216387
148, -28337.14, -33624.98, -22683.51, -18412.09, -22550.32, -22992.88, -25607.97, -25143.74, 0.000, 0.000, 0.000, 10:33:36.388, 1583739216388
149, -28503.93, -33673.48, -22685.41, -18374.03, -22614.73, -22929.18, -25734.32, -25170.54, 0.000, -0.018, 0.972, 10:33:36.388, 1583739216388
150, -29169.67, -33733.34, -22861.90, -18554.47, -23443.54, -23116.22, -26097.34, -25588.66, 0.000, 0.000, 0.000, 10:33:36.388, 1583739216388
151, -29508.97, -33751.34, -22982.26, -18676.31, -23933.44, -23225.18, -26250.71, -25854.22, 0.000, 0.000, 0.000, 10:33:36.388, 1583739216388
152, -29029.06, -33692.15, -22880.65, -18576.22, -23401.70, -23128.22, -25966.89, -25590.89, 0.000, 0.000, 0.000, 10:33:36.388, 1583739216388
153, -28345.01, -33626.34, -22694.22, -18424.63, -22565.74, -23006.47, -25618.59, -25156.31, 0.000, 0.000, 0.000, 10:33:36.389, 1583739216389
154, -28507.28, -33673.77, -22687.82, -18384.11, -22620.59, -22936.20, -25743.98, -25181.41, 0.000, 0.000, 0.000, 10:33:36.389, 1583739216389
155, -29163.57, -33730.10, -22863.20, -18563.55, -23444.23, -23127.64, -26105.58, -25596.35, 0.000, 0.000, 0.000, 10:33:36.389, 1583739216389
156, -29495.88, -33745.52, -22983.11, -18684.09, -23937.02, -23236.27, -26253.80, -25857.64, 0.000, 0.000, 0.000, 10:33:36.389, 1583739216389
157, -29028.46, -33693.40, -22875.80, -18574.41, -23405.61, -23129.72, -25965.98, -25593.73, 0.000, 0.000, 0.000, 10:33:36.389, 1583739216389
158, -28350.48, -33627.41, -22687.94, -18407.67, -22564.33, -22994.78, -25615.50, -25152.44, 0.000, 0.000, 0.000, 10:33:36.390, 1583739216390
159, -28509.63, -33672.03, -22688.83, -18367.63, -22617.42, -22922.63, -25742.21, -25174.63, 0.000, -0.018, 0.966, 10:33:36.390, 1583739216390
160, -29156.42, -33730.95, -22866.71, -18561.02, -23437.84, -23126.50, -26102.34, -25586.94, 0.000, 0.000, 0.000, 10:33:36.390, 1583739216390
161, -29489.68, -33746.26, -22983.05, -18682.91, -23931.07, -23238.82, -26251.30, -25849.86, 0.000, 0.000, 0.000, 10:33:36.390, 1583739216390
162, -29032.21, -33690.11, -22868.87, -18565.63, -23403.04, -23122.92, -25966.40, -25590.67, 0.000, 0.000, 0.000, 10:33:36.390, 1583739216390
163, -28359.31, -33629.56, -22693.81, -18417.14, -22574.46, -22999.54, -25626.30, -25163.53, 0.000, 0.000, 0.000, 10:33:36.390, 1583739216390
164, -28513.02, -33670.38, -22698.46, -18376.73, -22626.27, -22926.47, -25749.83, -25186.06, 0.000, 0.000, 0.000, 10:33:36.391, 1583739216391
165, -29146.16, -33716.29, -22862.19, -18556.06, -23430.75, -23120.31, -26094.59, -25583.98, 0.000, 0.000, 0.000, 10:33:36.391, 1583739216391
166, -29481.82, -33730.84, -22977.57, -18678.97, -23925.40, -23235.06, -26244.50, -25843.94, 0.000, 0.000, 0.000, 10:33:36.391, 1583739216391
167, -29032.37, -33680.97, -22876.50, -18569.25, -23412.24, -23123.53, -25967.56, -25590.82, 0.000, 0.000, 0.000, 10:33:36.391, 1583739216391
168, -28360.63, -33623.53, -22695.29, -18412.83, -22576.98, -22993.78, -25623.08, -25159.97, 0.000, 0.000, 0.000, 10:33:36.391, 1583739216391
169, -28512.04, -33667.47, -22697.48, -18367.81, -22619.41, -22915.68, -25744.54, -25175.95, 0.000, 0.000, 0.000, 10:33:36.391, 1583739216391
170, -29144.17, -33722.34, -22862.23, -18544.44, -23424.22, -23111.57, -26088.98, -25570.98, 0.004, -0.018, 0.952, 10:33:36.391, 1583739216391
171, -29483.25, -33738.41, -22985.77, -18677.61, -23924.39, -23237.23, -26243.81, -25839.51, 0.000, 0.000, 0.000, 10:33:36.391, 1583739216391
172, -29040.08, -33681.93, -22888.05, -18570.30, -23418.28, -23126.41, -25973.15, -25592.50, 0.000, 0.000, 0.000, 10:33:36.392, 1583739216392
173, -28362.11, -33626.54, -22696.65, -18412.99, -22578.08, -22992.26, -25622.27, -25159.84, 0.000, 0.000, 0.000, 10:33:36.392, 1583739216392
174, -28509.11, -33676.79, -22689.01, -18369.60, -22610.24, -22914.05, -25738.79, -25174.72, 0.000, 0.000, 0.000, 10:33:36.392, 1583739216392
175, -29139.23, -33729.81, -22848.04, -18542.69, -23404.09, -23109.89, -26078.65, -25566.35, 0.000, 0.000, 0.000, 10:33:36.392, 1583739216392
176, -29482.89, -33746.26, -22968.74, -18671.71, -23909.68, -23236.58, -26233.68, -25835.82, 0.000, 0.000, 0.000, 10:33:36.392, 1583739216392
177, -29047.32, -33691.03, -22869.46, -18564.08, -23411.17, -23122.07, -25966.29, -25594.33, 0.000, 0.000, 0.000, 10:33:36.392, 1583739216392
178, -28369.19, -33627.10, -22688.23, -18407.55, -22576.31, -22986.85, -25623.01, -25162.65, 0.000, 0.000, 0.000, 10:33:36.392, 1583739216392
179, -28508.44, -33671.94, -22691.40, -18364.21, -22607.13, -22908.55, -25741.65, -25174.90, 0.000, 0.000, 0.000, 10:33:36.393, 1583739216393
180, -29130.16, -33724.22, -22858.55, -18552.13, -23407.17, -23115.26, -26084.31, -25570.17, 0.004, -0.018, 0.968, 10:33:36.393, 1583739216393
181, -29471.22, -33742.17, -22984.63, -18688.34, -23920.08, -23248.83, -26241.06, -25843.13, 0.000, 0.000, 0.000, 10:33:36.393, 1583739216393
182, -29042.78, -33688.82, -22881.84, -18572.11, -23426.55, -23130.12, -25974.74, -25603.05, 0.000, 0.000, 0.000, 10:33:36.393, 1583739216393
183, -28366.42, -33624.93, -22697.48, -18412.38, -22586.46, -22992.97, -25630.32, -25169.45, 0.000, 0.000, 0.000, 10:33:36.393, 1583739216393
184, -28505.27, -33669.41, -22696.52, -18366.74, -22611.83, -22913.26, -25746.50, -25178.05, 0.000, 0.000, 0.000, 10:33:36.393, 1583739216393
185, -29128.88, -33723.95, -22865.05, -18548.28, -23409.85, -23117.45, -26088.66, -25569.25, 0.000, 0.000, 0.000, 10:33:36.393, 1583739216393
186, -29470.19, -33733.34, -22983.90, -18677.68, -23920.86, -23246.86, -26242.98, -25836.18, 0.000, 0.000, 0.000, 10:33:36.394, 1583739216394
187, -29048.75, -33686.25, -22884.05, -18572.96, -23432.61, -23132.91, -25982.20, -25602.80, 0.000, 0.000, 0.000, 10:33:36.394, 1583739216394
188, -28367.98, -33623.86, -22705.15, -18422.55, -22594.44, -23001.60, -25634.79, -25173.03, 0.000, 0.000, 0.000, 10:33:36.394, 1583739216394
189, -28498.88, -33666.33, -22710.56, -18382.50, -22618.45, -22924.02, -25749.30, -25182.41, 0.000, 0.000, 0.000, 10:33:36.394, 1583739216394
190, -29116.54, -33719.75, -22872.65, -18559.26, -23406.21, -23124.98, -26084.53, -25568.14, 0.000, -0.018, 0.970, 10:33:36.394, 1583739216394
191, -29463.49, -33739.82, -22990.04, -18688.00, -23922.80, -23254.11, -26240.30, -25836.63, 0.000, 0.000, 0.000, 10:33:36.394, 1583739216394
192, -29051.03, -33693.51, -22886.04, -18575.82, -23440.18, -23132.96, -25978.56, -25602.85, 0.000, 0.000, 0.000, 10:33:36.394, 1583739216394
193, -28368.52, -33625.38, -22704.05, -18419.87, -22596.63, -22996.46, -25626.07, -25169.56, 0.000, 0.000, 0.000, 10:33:36.395, 1583739216395
194, -28494.72, -33666.31, -22706.80, -18373.22, -22612.68, -22914.61, -25738.23, -25173.45, 0.000, 0.000, 0.000, 10:33:36.395, 1583739216395
195, -29117.15, -33720.33, -22860.11, -18549.58, -23397.52, -23113.20, -26072.88, -25558.35, 0.000, 0.000, 0.000, 10:33:36.395, 1583739216395
196, -29467.55, -33735.80, -22973.19, -18681.32, -23912.77, -23243.33, -26228.18, -25828.45, 0.000, 0.000, 0.000, 10:33:36.395, 1583739216395
197, -29062.25, -33690.16, -22882.69, -18577.70, -23441.48, -23129.23, -25977.29, -25605.38, 0.000, 0.000, 0.000, 10:33:36.395, 1583739216395
198, -28380.63, -33631.68, -22700.30, -18417.79, -22599.94, -22991.09, -25629.45, -25173.96, 0.000, 0.000, 0.000, 10:33:36.395, 1583739216395
199, -28499.77, -33672.81, -22697.39, -18370.56, -22606.53, -22906.38, -25737.79, -25174.57, 0.000, 0.000, 0.000, 10:33:36.395, 1583739216395
200, -29118.76, -33726.90, -22863.11, -18551.46, -23393.47, -23109.85, -26077.09, -25561.34, 0.006, -0.020, 0.970, 10:33:36.395, 1583739216395
201, -29467.96, -33743.80, -22985.24, -18686.26, -23916.07, -23246.91, -26237.88, -25834.44, 0.000, 0.000, 0.000, 10:33:36.395, 1583739216395
202, -29069.83, -33697.98, -22891.72, -18580.24, -23450.27, -23130.52, -25988.48, -25611.16, 0.000, 0.000, 0.000, 10:33:36.396, 1583739216396
203, -28385.33, -33630.97, -22703.02, -18416.41, -22600.92, -22988.86, -25634.34, -25174.86, 0.000, 0.000, 0.000, 10:33:36.396, 1583739216396
204, -28497.00, -33673.86, -22689.17, -18353.51, -22593.84, -22894.69, -25733.47, -25166.43, 0.000, 0.000, 0.000, 10:33:36.396, 1583739216396
205, -29115.18, -33732.71, -22852.40, -18538.45, -23381.27, -23103.14, -26073.94, -25555.66, 0.000, 0.000, 0.000, 10:33:36.396, 1583739216396
206, -29475.18, -33746.82, -22982.76, -18688.09, -23915.54, -23253.37, -26240.52, -25839.40, 0.000, 0.000, 0.000, 10:33:36.396, 1583739216396
207, -29076.67, -33695.23, -22898.06, -18586.50, -23461.71, -23140.47, -25995.14, -25622.12, 0.000, 0.000, 0.000, 10:33:36.396, 1583739216396
208, -28386.47, -33631.93, -22714.83, -18421.32, -22614.29, -22996.84, -25640.80, -25184.29, 0.000, 0.000, 0.000, 10:33:36.396, 1583739216396
209, -28492.88, -33673.59, -22697.90, -18362.00, -22598.26, -22902.67, -25737.83, -25172.13, 0.000, 0.000, 0.000, 10:33:36.396, 1583739216396
210, -29111.22, -33728.49, -22853.27, -18543.32, -23378.49, -23106.49, -26072.26, -25554.90, 0.008, -0.018, 0.966, 10:33:36.397, 1583739216397
211, -29469.19, -33741.21, -22983.92, -18695.38, -23917.95, -23257.73, -26234.13, -25836.25, 0.000, 0.000, 0.000, 10:33:36.397, 1583739216397
212, -29077.81, -33688.84, -22894.91, -18587.64, -23467.12, -23141.83, -25987.19, -25618.88, 0.000, 0.000, 0.000, 10:33:36.397, 1583739216397
213, -28388.57, -33621.18, -22701.35, -18409.83, -22606.53, -22993.06, -25629.47, -25174.93, 0.000, 0.000, 0.000, 10:33:36.397, 1583739216397
214, -28486.16, -33665.28, -22681.37, -18347.83, -22580.54, -22895.25, -25722.63, -25157.94, 0.000, 0.000, 0.000, 10:33:36.397, 1583739216397
215, -29099.22, -33721.34, -22844.40, -18529.57, -23361.13, -23097.11, -26059.70, -25539.82, 0.000, 0.000, 0.000, 10:33:36.397, 1583739216397
216, -29465.50, -33740.76, -22978.80, -18684.13, -23909.30, -23250.87, -26230.78, -25826.14, 0.000, 0.000, 0.000, 10:33:36.397, 1583739216397
217, -29082.50, -33692.17, -22890.53, -18582.12, -23467.14, -23137.85, -25989.91, -25615.95, 0.000, 0.000, 0.000, 10:33:36.397, 1583739216397
218, -28387.94, -33627.02, -22706.02, -18415.91, -22616.37, -22995.18, -25635.04, -25176.78, 0.000, 0.000, 0.000, 10:33:36.398, 1583739216398
219, -28478.63, -33660.43, -22690.33, -18357.17, -22586.71, -22899.18, -25726.79, -25157.47, 0.000, 0.000, 0.000, 10:33:36.398, 1583739216398
220, -29096.67, -33716.60, -22855.64, -18541.53, -23366.42, -23103.57, -26066.58, -25542.32, 0.004, -0.020, 0.970, 10:33:36.398, 1583739216398
221, -29465.88, -33737.59, -22981.50, -18690.35, -23911.81, -23254.44, -26235.76, -25830.48, 0.000, 0.000, 0.000, 10:33:36.398, 1583739216398
222, -29084.56, -33688.23, -22888.50, -18579.82, -23469.38, -23133.32, -25994.01, -25618.09, 0.000, 0.000, 0.000, 10:33:36.398, 1583739216398
223, -28390.54, -33618.83, -22698.15, -18408.56, -22612.21, -22986.87, -25632.89, -25175.69, 0.000, 0.000, 0.000, 10:33:36.398, 1583739216398
224, -28481.17, -33662.44, -22684.34, -18351.18, -22575.57, -22892.25, -25722.39, -25155.72, 0.000, 0.000, 0.000, 10:33:36.398, 1583739216398
225, -29091.67, -33720.15, -22848.89, -18534.63, -23352.03, -23094.45, -26059.34, -25537.83, 0.000, 0.000, 0.000, 10:33:36.398, 1583739216398
226, -29460.18, -33740.16, -22977.59, -18684.40, -23903.02, -23247.24, -26229.68, -25825.88, 0.000, 0.000, 0.000, 10:33:36.399, 1583739216399
227, -29088.13, -33693.67, -22889.73, -18582.14, -23470.69, -23133.12, -25993.38, -25621.63, 0.000, 0.000, 0.000, 10:33:36.399, 1583739216399
228, -28396.46, -33633.56, -22707.40, -18426.98, -22619.79, -22997.35, -25639.33, -25185.32, 0.000, 0.000, 0.000, 10:33:36.399, 1583739216399
229, -28483.47, -33677.59, -22698.53, -18371.14, -22581.27, -22907.41, -25731.01, -25164.69, 0.000, 0.000, 0.000, 10:33:36.399, 1583739216399
230, -29098.53, -33725.96, -22852.96, -18535.05, -23350.89, -23095.99, -26061.82, -25537.69, 0.004, -0.018, 0.966, 10:33:36.399, 1583739216399
231, -29475.51, -33742.91, -22982.00, -18684.67, -23909.97, -23250.93, -26233.62, -25830.28, 0.000, 0.000, 0.000, 10:33:36.399, 1583739216399
232, -29102.51, -33699.32, -22894.22, -18587.35, -23486.14, -23138.93, -25999.55, -25631.59, 0.000, 0.000, 0.000, 10:33:36.399, 1583739216399
233, -28402.67, -33637.52, -22697.86, -18418.66, -22618.89, -22994.02, -25633.56, -25188.56, 0.000, 0.000, 0.000, 10:33:36.399, 1583739216399
234, -28482.60, -33675.52, -22676.94, -18355.52, -22565.58, -22897.37, -25718.18, -25160.04, 0.000, 0.000, 0.000, 10:33:36.400, 1583739216400
235, -29094.06, -33728.47, -22832.62, -18526.04, -23332.52, -23091.86, -26055.67, -25535.39, 0.000, 0.000, 0.000, 10:33:36.400, 1583739216400
236, -29465.95, -33743.91, -22963.42, -18678.99, -23894.80, -23248.96, -26229.71, -25826.52, 0.000, 0.000, 0.000, 10:33:36.400, 1583739216400
237, -29106.02, -33701.78, -22894.04, -18591.98, -23488.98, -23145.05, -26007.08, -25636.98, 0.000, 0.000, 0.000, 10:33:36.400, 1583739216400
238, -28406.05, -33630.03, -22710.42, -18428.39, -22631.97, -23002.85, -25645.21, -25195.11, 0.000, 0.000, 0.000, 10:33:36.400, 1583739216400
239, -28472.25, -33664.79, -22680.45, -18353.49, -22566.37, -22894.04, -25717.40, -25154.96, 0.000, 0.000, 0.000, 10:33:36.400, 1583739216400
240, -29087.71, -33724.27, -22834.61, -18526.49, -23329.72, -23086.33, -26052.23, -25529.42, 0.006, -0.022, 0.976, 10:33:36.400, 1583739216400
241, -29464.45, -33741.66, -22968.03, -18678.82, -23894.73, -23243.87, -26228.23, -25820.11, 0.000, 0.000, 0.000, 10:33:36.859, 1583739216859
242, -29111.00, -33699.63, -22892.81, -18579.51, -23489.43, -23133.85, -26004.26, -25628.15, 0.000, 0.000, 0.000, 10:33:36.859, 1583739216859
243, -28407.97, -33629.76, -22703.67, -18408.92, -22628.06, -22987.72, -25637.52, -25181.99, 0.000, 0.000, 0.000, 10:33:36.859, 1583739216859
244, -28467.54, -33668.25, -22679.40, -18347.36, -22559.26, -22888.77, -25711.08, -25146.14, 0.000, 0.000, 0.000, 10:33:36.859, 1583739216859
245, -29078.72, -33724.22, -22844.18, -18529.10, -23328.80, -23087.99, -26049.17, -25526.50, 0.000, 0.000, 0.000, 10:33:36.859, 1583739216859
246, -29462.82, -33736.76, -22976.54, -18678.64, -23900.23, -23245.52, -26226.33, -25819.26, 0.000, 0.000, 0.000, 10:33:36.859, 1583739216859
247, -29112.97, -33693.31, -22890.91, -18579.15, -23495.30, -23132.24, -26000.08, -25627.75, 0.000, 0.000, 0.000, 10:33:36.859, 1583739216859
248, -28409.71, -33630.23, -22701.39, -18414.55, -22633.76, -22990.65, -25636.29, -25183.64, 0.000, 0.000, 0.000, 10:33:36.860, 1583739216860
249, -28466.15, -33669.71, -22681.12, -18349.11, -22559.14, -22889.44, -25708.33, -25143.21, 0.000, 0.000, 0.000, 10:33:36.860, 1583739216860
250, -29074.59, -33720.94, -22833.78, -18517.06, -23313.63, -23076.81, -26037.86, -25512.57, 0.008, -0.020, 0.976, 10:33:36.860, 1583739216860
251, -29458.64, -33740.63, -22966.01, -18671.19, -23888.31, -23239.35, -26217.57, -25810.14, 0.000, 0.000, 0.000, 10:33:36.860, 1583739216860
252, -29116.25, -33699.32, -22885.75, -18576.45, -23493.05, -23129.94, -25999.82, -25626.47, 0.000, 0.000, 0.000, 10:33:36.864, 1583739216864
253, -28408.66, -33620.91, -22685.88, -18404.29, -22623.00, -22980.65, -25629.56, -25178.35, 0.000, 0.000, 0.000, 10:33:36.864, 1583739216864
254, -28460.68, -33661.77, -22659.21, -18332.97, -22538.43, -22876.99, -25697.02, -25134.29, 0.000, 0.000, 0.000, 10:33:36.864, 1583739216864
255, -29078.54, -33731.11, -22823.50, -18514.08, -23307.44, -23076.81, -26039.20, -25516.06, 0.000, 0.000, 0.000, 10:33:36.864, 1583739216864
0, -29464.98, -33743.89, -22956.89, -18671.28, -23884.16, -23240.99, -26218.13, -25815.66, 0.000, 0.000, 0.000, 10:33:36.864, 1583739216864
1, -29124.59, -33701.04, -22884.65, -18577.96, -23497.18, -23132.87, -26000.42, -25635.10, 0.000, 0.000, 0.000, 10:33:36.864, 1583739216864
2, -28423.17, -33639.22, -22706.94, -18426.38, -22642.07, -23001.08, -25643.20, -25199.62, 0.000, 0.000, 0.000, 10:33:36.865, 1583739216865
3, -28463.92, -33672.48, -22679.42, -18359.43, -22553.54, -22898.31, -25710.12, -25151.81, 0.000, 0.000, 0.000, 10:33:36.865, 1583739216865
4, -29068.04, -33727.57, -22832.44, -18519.89, -23307.91, -23081.19, -26042.49, -25520.42, 0.000, 0.000, 0.000, 10:33:36.866, 1583739216866
5, -29459.53, -33739.58, -22971.31, -18678.28, -23894.84, -23249.39, -26229.35, -25822.77, 0.006, -0.016, 0.978, 10:33:36.866, 1583739216866
6, -29126.85, -33695.45, -22901.64, -18592.74, -23520.03, -23147.06, -26018.93, -25647.62, 0.000, 0.000, 0.000, 10:33:36.866, 1583739216866
7, -28413.85, -33625.09, -22712.12, -18426.60, -22650.63, -23002.89, -25650.50, -25199.94, 0.000, 0.000, 0.000, 10:33:36.866, 1583739216866
8, -28448.49, -33658.95, -22679.89, -18349.11, -22551.21, -22892.39, -25710.05, -25142.92, 0.000, 0.000, 0.000, 10:33:36.867, 1583739216867
9, -29060.57, -33710.83, -22839.30, -18518.60, -23307.55, -23079.72, -26047.18, -25512.55, 0.000, 0.000, 0.000, 10:33:36.867, 1583739216867
10, -29456.20, -33723.17, -22973.53, -18680.34, -23895.22, -23248.74, -26230.58, -25817.00, 0.000, 0.000, 0.000, 10:33:36.867, 1583739216867
11, -29135.52, -33685.66, -22902.85, -18592.29, -23523.36, -23144.20, -26020.38, -25644.38, 0.000, 0.000, 0.000, 10:33:36.867, 1583739216867
12, -28427.53, -33621.98, -22717.13, -18431.07, -22657.45, -23003.99, -25653.05, -25200.52, 0.000, 0.000, 0.000, 10:33:36.867, 1583739216867
13, -28458.49, -33663.49, -22683.02, -18351.25, -22549.47, -22892.83, -25710.29, -25141.40, 0.000, 0.000, 0.000, 10:33:36.867, 1583739216867
14, -29065.00, -33722.37, -22826.81, -18511.29, -23295.50, -23071.51, -26042.20, -25505.66, 0.000, 0.000, 0.000, 10:33:36.867, 1583739216867
15, -29459.26, -33740.43, -22961.92, -18676.13, -23886.68, -23241.88, -26228.52, -25810.54, 0.006, -0.016, 0.974, 10:33:36.867, 1583739216867
16, -29138.98, -33700.48, -22893.82, -18585.68, -23520.45, -23137.52, -26021.95, -25641.92, 0.000, 0.000, 0.000, 10:33:36.867, 1583739216867
17, -28429.09, -33630.10, -22707.03, -18418.98, -22651.68, -22994.89, -25650.77, -25196.45, 0.000, 0.000, 0.000, 10:33:36.868, 1583739216868
18, -28452.16, -33659.07, -22676.20, -18342.64, -22536.62, -22885.10, -25703.90, -25133.64, 0.000, 0.000, 0.000, 10:33:36.868, 1583739216868
19, -29061.87, -33719.50, -22826.96, -18512.14, -23287.14, -23068.88, -26037.97, -25502.94, 0.000, 0.000, 0.000, 10:33:36.868, 1583739216868
20, -29468.56, -33742.17, -22964.88, -18680.22, -23889.01, -23245.10, -26228.34, -25814.23, 0.000, 0.000, 0.000, 10:33:36.868, 1583739216868
21, -29156.13, -33703.66, -22899.50, -18593.57, -23531.29, -23142.19, -26026.37, -25649.45, 0.000, 0.000, 0.000, 10:33:36.868, 1583739216868
22, -28439.91, -33630.52, -22714.76, -18430.78, -22660.98, -23001.29, -25655.31, -25204.27, 0.000, 0.000, 0.000, 10:33:36.868, 1583739216868
23, -28455.92, -33659.65, -22679.11, -18353.51, -22536.41, -22891.72, -25704.08, -25138.18, 0.000, 0.000, 0.000, 10:33:36.868, 1583739216868
24, -29062.70, -33723.30, -22822.07, -18513.35, -23281.08, -23070.93, -26035.91, -25503.12, 0.000, 0.000, 0.000, 10:33:36.868, 1583739216868
25, -29466.59, -33746.57, -22955.33, -18672.63, -23883.98, -23243.29, -26225.23, -25812.15, 0.004, -0.016, 0.974, 10:33:36.869, 1583739216869
26, -29155.66, -33708.60, -22895.76, -18591.76, -23537.82, -23143.87, -26026.79, -25653.70, 0.000, 0.000, 0.000, 10:33:36.869, 1583739216869
27, -28440.76, -33633.90, -22710.87, -18428.70, -22664.71, -23003.56, -25654.97, -25208.77, 0.000, 0.000, 0.000, 10:33:36.869, 1583739216869
28, -28454.46, -33666.20, -22674.75, -18345.89, -22534.34, -22889.77, -25699.83, -25137.73, 0.000, 0.000, 0.000, 10:33:36.869, 1583739216869
29, -29059.93, -33725.61, -22826.76, -18503.60, -23280.88, -23066.96, -26036.56, -25502.04, 0.000, 0.000, 0.000, 10:33:36.869, 1583739216869
30, -29461.81, -33741.99, -22969.79, -18678.39, -23891.18, -23250.26, -26230.80, -25818.32, 0.000, 0.000, 0.000, 10:33:36.869, 1583739216869
31, -29161.36, -33707.37, -22910.43, -18602.17, -23550.31, -23154.22, -26035.54, -25664.16, 0.000, 0.000, 0.000, 10:33:36.869, 1583739216869
32, -28453.14, -33641.03, -22721.69, -18440.46, -22679.85, -23014.72, -25663.85, -25220.34, 0.000, 0.000, 0.000, 10:33:36.869, 1583739216869
33, -28453.70, -33669.01, -22681.74, -18358.18, -22538.69, -22900.63, -25705.91, -25146.18, 0.000, 0.000, 0.000, 10:33:36.870, 1583739216870
34, -29052.77, -33723.55, -22830.32, -18509.14, -23277.24, -23072.41, -26039.13, -25505.96, 0.000, 0.000, 0.000, 10:33:36.870, 1583739216870
35, -29459.73, -33732.56, -22964.45, -18674.10, -23886.68, -23248.12, -26231.36, -25815.93, 0.002, -0.020, 0.972, 10:33:36.870, 1583739216870
36, -29161.29, -33694.63, -22902.85, -18596.18, -23552.23, -23150.08, -26034.33, -25661.75, 0.000, 0.000, 0.000, 10:33:36.870, 1583739216870
37, -28448.23, -33633.74, -22718.11, -18432.25, -22682.50, -23010.31, -25661.39, -25215.85, 0.000, 0.000, 0.000, 10:33:36.870, 1583739216870
38, -28443.55, -33663.43, -22681.63, -18348.90, -22536.73, -22896.14, -25702.52, -25138.60, 0.000, 0.000, 0.000, 10:33:36.870, 1583739216870
39, -29046.13, -33728.31, -22830.50, -18509.46, -23274.56, -23069.21, -26033.93, -25498.45, 0.000, 0.000, 0.000, 10:33:36.870, 1583739216870
40, -29463.31, -33751.63, -22969.90, -18685.79, -23891.69, -23251.63, -26228.90, -25816.33, 0.000, 0.000, 0.000, 10:33:36.870, 1583739216870
41, -29171.53, -33714.90, -22903.52, -18595.96, -23554.94, -23145.14, -26031.87, -25661.01, 0.000, 0.000, 0.000, 10:33:36.871, 1583739216871
42, -28449.63, -33634.66, -22706.51, -18419.22, -22673.90, -22993.35, -25649.72, -25205.10, 0.000, 0.000, 0.000, 10:33:36.871, 1583739216871
43, -28436.09, -33660.34, -22669.96, -18339.87, -22523.76, -22882.62, -25686.60, -25125.37, 0.000, 0.000, 0.000, 10:33:36.871, 1583739216871
44, -29035.54, -33717.94, -22817.64, -18499.29, -23259.13, -23055.76, -26020.92, -25486.44, 0.000, 0.000, 0.000, 10:33:36.871, 1583739216871
45, -29454.30, -33738.91, -22954.84, -18671.51, -23877.12, -23240.00, -26220.81, -25808.08, 0.006, -0.018, 0.970, 10:33:36.871, 1583739216871
46, -29169.52, -33700.66, -22895.65, -18588.13, -23551.34, -23140.78, -26031.27, -25660.18, 0.000, 0.000, 0.000, 10:33:36.871, 1583739216871
47, -28450.53, -33630.72, -22707.00, -18416.23, -22675.38, -22995.27, -25652.34, -25209.12, 0.000, 0.000, 0.000, 10:33:36.871, 1583739216871
48, -28435.62, -33668.03, -22672.63, -18342.13, -22521.06, -22887.18, -25691.52, -25129.42, 0.000, 0.000, 0.000, 10:33:36.871, 1583739216871
49, -29036.90, -33724.24, -22819.37, -18500.29, -23253.77, -23058.84, -26024.89, -25489.35, 0.000, 0.000, 0.000, 10:33:36.871, 1583739216871
50, -29459.42, -33745.57, -22961.59, -18674.35, -23878.32, -23245.01, -26226.80, -25812.84, 0.000, 0.000, 0.000, 10:33:36.872, 1583739216872
51, -29178.68, -33709.83, -22906.25, -18597.90, -23561.04, -23147.73, -26041.21, -25669.90, 0.000, 0.000, 0.000, 10:33:36.872, 1583739216872
52, -28455.54, -33636.96, -22716.23, -18433.86, -22684.25, -23005.49, -25662.62, -25220.61, 0.000, 0.000, 0.000, 10:33:36.872, 1583739216872
53, -28432.78, -33666.75, -22676.45, -18357.89, -22520.07, -22897.17, -25694.38, -25137.08, 0.000, 0.000, 0.000, 10:33:36.872, 1583739216872
54, -29033.71, -33728.09, -22823.57, -18507.51, -23247.98, -23065.75, -26028.29, -25495.11, 0.000, 0.000, 0.000, 10:33:36.872, 1583739216872
55, -29458.08, -33747.60, -22963.60, -18672.07, -23874.99, -23250.06, -26228.65, -25815.08, 0.010, -0.016, 0.968, 10:33:36.872, 1583739216872
56, -29182.35, -33704.91, -22906.92, -18598.35, -23566.03, -23154.46, -26043.25, -25674.49, 0.000, 0.000, 0.000, 10:33:36.872, 1583739216872
57, -28461.64, -33634.05, -22721.87, -18440.48, -22694.98, -23019.19, -25668.05, -25229.40, 0.000, 0.000, 0.000, 10:33:36.873, 1583739216873
58, -28435.87, -33671.34, -22685.10, -18361.11, -22524.79, -22908.68, -25697.29, -25142.89, 0.000, 0.000, 0.000, 10:33:36.873, 1583739216873
59, -29034.22, -33730.39, -22836.82, -18514.20, -23251.69, -23073.91, -26031.31, -25497.68, 0.000, 0.000, 0.000, 10:33:36.873, 1583739216873
60, -29454.66, -33736.45, -22977.86, -18683.00, -23883.96, -23257.35, -26234.06, -25815.84, 0.000, 0.000, 0.000, 10:33:36.873, 1583739216873
61, -29181.99, -33707.01, -22916.84, -18606.73, -23578.72, -23161.32, -26052.19, -25678.11, 0.000, 0.000, 0.000, 10:33:36.873, 1583739216873
62, -28459.96, -33641.41, -22727.57, -18444.12, -22703.65, -23020.42, -25673.79, -25230.27, 0.000, 0.000, 0.000, 10:33:36.890, 1583739216890
63, -28424.91, -33668.43, -22680.89, -18361.20, -22524.34, -22905.49, -25698.60, -25137.06, 0.000, 0.000, 0.000, 10:33:36.891, 1583739216891
64, -29022.82, -33726.70, -22825.62, -18506.53, -23246.44, -23065.75, -26028.27, -25487.78, 0.000, 0.000, 0.000, 10:33:36.891, 1583739216891
65, -29451.22, -33743.60, -22971.98, -18679.02, -23881.50, -23252.94, -26232.14, -25811.46, 0.012, -0.016, 0.972, 10:33:36.891, 1583739216891
66, -29188.36, -33706.68, -22923.23, -18607.07, -23588.85, -23158.84, -26055.63, -25677.88, 0.000, 0.000, 0.000, 10:33:36.891, 1583739216891
67, -28467.09, -33634.17, -22731.41, -18441.55, -22711.90, -23015.97, -25675.16, -25229.22, 0.000, 0.000, 0.000, 10:33:36.891, 1583739216891
68, -28420.06, -33658.64, -22679.73, -18350.87, -22517.04, -22894.04, -25691.27, -25127.74, 0.000, 0.000, 0.000, 10:33:36.891, 1583739216891
69, -29016.36, -33718.50, -22816.26, -18497.95, -23228.42, -23051.80, -26017.03, -25477.30, 0.000, 0.000, 0.000, 10:33:36.891, 1583739216891
70, -29455.35, -33742.89, -22957.39, -18673.41, -23867.50, -23242.21, -26225.90, -25804.87, 0.000, 0.000, 0.000, 10:33:36.892, 1583739216892
71, -29186.50, -33702.83, -22901.28, -18595.18, -23574.90, -23144.20, -26046.80, -25669.68, 0.000, 0.000, 0.000, 10:33:36.892, 1583739216892
72, -28458.22, -33625.54, -22715.21, -18430.89, -22699.04, -23003.05, -25668.27, -25220.93, 0.000, 0.000, 0.000, 10:33:36.892, 1583739216892
73, -28414.30, -33651.54, -22670.01, -18345.73, -22504.45, -22886.31, -25683.88, -25119.11, 0.000, 0.000, 0.000, 10:33:36.892, 1583739216892
74, -29014.17, -33719.21, -22810.42, -18490.86, -23217.29, -23046.10, -26013.67, -25470.50, 0.000, 0.000, 0.000, 10:33:36.892, 1583739216892
75, -29447.57, -33745.63, -22951.15, -18668.22, -23858.38, -23240.94, -26221.63, -25802.50, 0.008, -0.018, 0.968, 10:33:36.892, 1583739216892
76, -29192.63, -33711.05, -22903.88, -18602.17, -23579.01, -23153.52, -26048.65, -25679.18, 0.000, 0.000, 0.000, 10:33:36.892, 1583739216892
77, -28471.29, -33638.46, -22717.51, -18439.05, -22704.01, -23014.92, -25666.44, -25233.42, 0.000, 0.000, 0.000, 10:33:36.893, 1583739216893
78, -28415.88, -33659.07, -22667.69, -18349.80, -22500.88, -22896.54, -25678.29, -25127.09, 0.000, 0.000, 0.000, 10:33:36.893, 1583739216893
79, -29009.03, -33717.43, -22812.68, -18491.82, -23211.53, -23051.71, -26012.00, -25473.63, 0.000, 0.000, 0.000, 10:33:36.893, 1583739216893
80, -29447.48, -33737.63, -22957.63, -18664.80, -23860.44, -23241.30, -26224.09, -25801.38, 0.000, 0.000, 0.000, 10:33:36.893, 1583739216893
81, -29197.46, -33703.37, -22910.80, -18596.32, -23589.61, -23152.09, -26056.14, -25680.19, 0.000, 0.000, 0.000, 10:33:36.893, 1583739216893
82, -28471.70, -33634.46, -22728.28, -18435.61, -22717.62, -23015.30, -25674.64, -25235.43, 0.000, 0.000, 0.000, 10:33:36.893, 1583739216893
83, -28409.60, -33659.31, -22681.90, -18353.96, -22509.57, -22902.20, -25689.06, -25129.82, 0.000, 0.000, 0.000, 10:33:36.894, 1583739216894
84, -29006.28, -33724.67, -22828.37, -18505.05, -23224.62, -23063.22, -26023.33, -25481.23, 0.000, 0.000, 0.000, 10:33:36.894, 1583739216894
85, -29450.99, -33746.39, -22970.51, -18684.81, -23869.81, -23259.52, -26231.80, -25812.60, 0.002, -0.016, 0.972, 10:33:36.894, 1583739216894
86, -29206.46, -33710.03, -22917.60, -18610.49, -23597.59, -23163.54, -26058.87, -25688.77, 0.000, 0.000, 0.000, 10:33:36.894, 1583739216894
87, -28484.95, -33643.15, -22728.68, -18448.35, -22722.51, -23024.62, -25678.85, -25242.52, 0.000, 0.000, 0.000, 10:33:36.894, 1583739216894
88, -28410.65, -33664.32, -22670.84, -18353.80, -22497.01, -22900.23, -25679.74, -25123.67, 0.000, 0.000, 0.000, 10:33:36.894, 1583739216894
89, -28999.60, -33718.07, -22810.09, -18489.68, -23199.17, -23048.27, -26006.77, -25464.13, 0.000, 0.000, 0.000, 10:33:36.894, 1583739216894
90, -29444.69, -33735.69, -22948.63, -18662.66, -23849.29, -23239.09, -26216.83, -25793.04, 0.000, 0.000, 0.000, 10:33:36.894, 1583739216894
91, -29206.51, -33705.89, -22898.09, -18591.93, -23588.04, -23145.81, -26051.99, -25675.27, 0.000, 0.000, 0.000, 10:33:36.895, 1583739216895
92, -28481.87, -33636.00, -22715.70, -18430.55, -22716.19, -23007.12, -25669.68, -25228.97, 0.000, 0.000, 0.000, 10:33:36.895, 1583739216895
93, -28408.46, -33661.03, -22666.61, -18344.12, -22493.14, -22889.17, -25671.80, -25112.16, 0.000, 0.000, 0.000, 10:33:36.895, 1583739216895
94, -28999.71, -33722.21, -22814.51, -18494.97, -23199.50, -23046.84, -26005.25, -25460.71, 0.000, 0.000, 0.000, 10:33:36.895, 1583739216895
95, -29446.19, -33740.70, -22961.41, -18679.84, -23859.64, -23249.08, -26221.95, -25799.05, 0.000, 0.000, 0.000, 10:33:36.895, 1583739216895
96, -29215.67, -33709.38, -22911.48, -18604.12, -23605.59, -23153.81, -26058.54, -25684.28, 0.004, -0.020, 0.968, 10:33:36.895, 1583739216895
97, -28489.35, -33636.87, -22719.47, -18434.71, -22726.89, -23008.37, -25671.29, -25233.46, 0.000, 0.000, 0.000, 10:33:36.895, 1583739216895
98, -28400.73, -33656.00, -22655.91, -18333.41, -22486.57, -22880.41, -25662.13, -25106.39, 0.000, 0.000, 0.000, 10:33:36.896, 1583739216896
99, -28989.74, -33718.95, -22796.88, -18473.07, -23183.79, -23032.04, -25992.17, -25450.32, 0.000, 0.000, 0.000, 10:33:36.896, 1583739216896
100, -29444.27, -33745.05, -22952.07, -18667.75, -23851.72, -23241.07, -26212.96, -25793.44, 0.000, 0.000, 0.000, 10:33:36.896, 1583739216896
101, -29218.65, -33707.30, -22911.72, -18603.83, -23608.04, -23155.65, -26056.52, -25686.60, 0.000, 0.000, 0.000, 10:33:36.896, 1583739216896
102, -28492.59, -33637.34, -22725.22, -18435.58, -22733.53, -23013.85, -25672.90, -25238.34, 0.000, 0.000, 0.000, 10:33:36.896, 1583739216896
103, -28400.86, -33657.90, -22661.03, -18335.67, -22486.46, -22885.97, -25662.24, -25109.01, 0.000, 0.000, 0.000, 10:33:36.896, 1583739216896
104, -28990.35, -33720.78, -22800.54, -18480.00, -23180.75, -23035.62, -25991.77, -25451.48, 0.000, 0.000, 0.000, 10:33:36.896, 1583739216896
105, -29445.34, -33746.35, -22952.83, -18676.92, -23850.45, -23245.75, -26214.82, -25797.20, 0.000, 0.000, 0.000, 10:33:37.340, 1583739217340
106, -29228.19, -33717.23, -22905.62, -18604.94, -23607.91, -23154.64, -26057.24, -25691.83, 0.004, -0.018, 0.968, 10:33:37.340, 1583739217340
107, -28498.05, -33638.97, -22712.81, -18425.88, -22726.43, -23005.58, -25667.16, -25238.72, 0.000, 0.000, 0.000, 10:33:37.340, 1583739217340
108, -28397.91, -33654.68, -22657.89, -18339.58, -22481.25, -22889.57, -25661.52, -25114.62, 0.000, 0.000, 0.000, 10:33:37.340, 1583739217340
109, -28982.75, -33718.21, -22803.96, -18485.99, -23177.93, -23042.37, -25997.16, -25460.33, 0.000, 0.000, 0.000, 10:33:37.341, 1583739217341
110, -29438.63, -33746.06, -22957.28, -18677.38, -23854.29, -23251.98, -26222.87, -25805.58, 0.000, 0.000, 0.000, 10:33:37.341, 1583739217341
111, -29229.93, -33717.74, -22917.29, -18616.30, -23626.51, -23170.44, -26069.93, -25707.79, 0.000, 0.000, 0.000, 10:33:37.341, 1583739217341
112, -28504.71, -33641.52, -22726.89, -18449.96, -22746.27, -23028.42, -25680.34, -25257.49, 0.000, 0.000, 0.000, 10:33:37.341, 1583739217341
113, -28403.34, -33662.57, -22672.85, -18357.24, -22492.43, -22906.58, -25668.83, -25123.45, 0.000, 0.000, 0.000, 10:33:37.341, 1583739217341
114, -28984.15, -33722.05, -22816.10, -18496.54, -23181.66, -23051.40, -26002.16, -25461.12, 0.000, 0.000, 0.000, 10:33:37.341, 1583739217341
115, -29440.40, -33743.45, -22966.15, -18683.04, -23856.60, -23256.32, -26226.40, -25802.18, 0.000, 0.000, 0.000, 10:33:37.341, 1583739217341
116, -29232.71, -33714.75, -22926.90, -18616.77, -23631.80, -23170.94, -26075.43, -25703.19, 0.004, -0.020, 0.968, 10:33:37.341, 1583739217341
117, -28501.31, -33635.78, -22736.22, -18439.45, -22752.87, -23021.71, -25684.75, -25248.28, 0.000, 0.000, 0.000, 10:33:37.342, 1583739217342
118, -28390.07, -33653.10, -22663.51, -18339.25, -22482.63, -22891.85, -25662.35, -25106.39, 0.000, 0.000, 0.000, 10:33:37.345, 1583739217345
119, -28974.21, -33711.59, -22798.04, -18475.97, -23164.27, -23033.76, -25990.03, -25441.36, 0.000, 0.000, 0.000, 10:33:37.345, 1583739217345
120, -29433.54, -33734.68, -22951.78, -18663.50, -23841.98, -23241.21, -26215.18, -25784.99, 0.000, 0.000, 0.000, 10:33:37.345, 1583739217345
121, -29233.80, -33711.59, -22916.88, -18605.77, -23628.05, -23159.33, -26070.49, -25693.82, 0.000, 0.000, 0.000, 10:33:37.345, 1583739217345
122, -28503.37, -33637.30, -22732.86, -18445.80, -22754.05, -23021.76, -25686.76, -25250.63, 0.000, 0.000, 0.000, 10:33:37.345, 1583739217345
123, -28384.39, -33650.62, -22658.50, -18338.85, -22474.77, -22889.24, -25659.22, -25106.28, 0.000, 0.000, 0.000, 10:33:37.345, 1583739217345
124, -28968.87, -33716.69, -22789.70, -18470.97, -23151.56, -23026.19, -25984.28, -25439.99, 0.000, 0.000, 0.000, 10:33:37.346, 1583739217346
125, -29433.51, -33740.76, -22941.88, -18656.31, -23834.47, -23232.16, -26208.11, -25784.35, 0.000, 0.000, 0.000, 10:33:37.346, 1583739217346
126, -29239.05, -33716.46, -22916.21, -18602.33, -23630.69, -23155.94, -26066.83, -25698.45, 0.004, -0.024, 0.968, 10:33:37.346, 1583739217346
127, -28508.33, -33636.18, -22726.63, -18438.62, -22754.84, -23014.05, -25680.12, -25251.21, 0.000, 0.000, 0.000, 10:33:37.346, 1583739217346
128, -28381.82, -33647.71, -22648.53, -18334.73, -22469.22, -22882.46, -25652.22, -25102.17, 0.000, 0.000, 0.000, 10:33:37.346, 1583739217346
129, -28963.86, -33713.83, -22791.36, -18472.29, -23148.40, -23024.67, -25983.75, -25437.49, 0.000, 0.000, 0.000, 10:33:37.346, 1583739217346
130, -29437.54, -33743.11, -22953.59, -18671.33, -23843.03, -23244.29, -26218.24, -25792.10, 0.000, 0.000, 0.000, 10:33:37.346, 1583739217346
131, -29250.30, -33720.55, -22924.71, -18617.68, -23647.05, -23168.70, -26082.38, -25710.74, 0.000, 0.000, 0.000, 10:33:37.346, 1583739217346
132, -28522.99, -33645.90, -22740.75, -18452.41, -22773.79, -23030.32, -25696.93, -25266.32, 0.000, 0.000, 0.000, 10:33:37.346, 1583739217346
133, -28394.36, -33667.45, -22678.44, -18352.77, -22487.46, -22905.29, -25671.98, -25119.18, 0.000, 0.000, 0.000, 10:33:37.347, 1583739217347
134, -28970.25, -33728.49, -22811.34, -18480.44, -23159.80, -23036.09, -25995.99, -25445.00, 0.000, 0.000, 0.000, 10:33:37.347, 1583739217347
135, -29440.87, -33753.17, -22958.95, -18670.32, -23847.08, -23248.14, -26224.29, -25795.12, 0.000, 0.000, 0.000, 10:33:37.347, 1583739217347
136, -29258.63, -33725.70, -22929.58, -18619.92, -23656.95, -23175.45, -26089.27, -25718.52, -0.002, -0.020, 0.970, 10:33:37.347, 1583739217347
137, -28531.06, -33651.69, -22743.99, -18457.89, -22781.23, -23037.21, -25700.86, -25273.09, 0.000, 0.000, 0.000, 10:33:37.347, 1583739217347
138, -28394.34, -33665.46, -22671.11, -18355.05, -22482.35, -22908.23, -25666.26, -25117.19, 0.000, 0.000, 0.000, 10:33:37.347, 1583739217347
139, -28968.46, -33723.21, -22806.06, -18479.24, -23148.49, -23038.75, -25993.07, -25442.05, 0.000, 0.000, 0.000, 10:33:37.347, 1583739217347
140, -29439.41, -33747.38, -22959.26, -18677.07, -23841.40, -23255.02, -26221.46, -25794.85, 0.000, 0.000, 0.000, 10:33:37.347, 1583739217347
141, -29267.08, -33726.17, -22935.19, -18632.10, -23658.47, -23182.94, -26090.38, -25721.04, 0.000, 0.000, 0.000, 10:33:37.348, 1583739217348
142, -28529.47, -33643.04, -22733.65, -18446.16, -22773.01, -23027.06, -25694.02, -25263.37, 0.000, 0.000, 0.000, 10:33:37.348, 1583739217348
143, -28373.19, -33648.34, -22649.87, -18328.25, -22460.06, -22886.64, -25651.44, -25096.49, 0.000, 0.000, 0.000, 10:33:37.348, 1583739217348
144, -28948.97, -33710.72, -22790.75, -18459.05, -23130.79, -23017.80, -25982.09, -25422.31, 0.000, 0.000, 0.000, 10:33:37.348, 1583739217348
145, -29424.19, -33736.29, -22952.54, -18661.40, -23833.24, -23239.76, -26220.65, -25778.80, 0.000, 0.000, 0.000, 10:33:37.348, 1583739217348
146, -29251.39, -33707.61, -22925.80, -18611.25, -23653.46, -23166.82, -26089.87, -25705.58, 0.002, -0.020, 0.972, 10:33:37.348, 1583739217348
147, -28528.22, -33634.64, -22738.70, -18446.27, -22780.76, -23025.02, -25702.09, -25261.14, 0.000, 0.000, 0.000, 10:33:37.348, 1583739217348
148, -28380.48, -33653.88, -22665.85, -18342.11, -22472.35, -22895.43, -25664.32, -25102.30, 0.000, 0.000, 0.000, 10:33:37.348, 1583739217348
149, -28948.97, -33717.79, -22791.34, -18466.52, -23125.94, -23019.55, -25984.08, -25424.42, 0.000, 0.000, 0.000, 10:33:37.348, 1583739217348
150, -29427.86, -33740.56, -22944.67, -18664.35, -23826.04, -23237.41, -26216.83, -25779.41, 0.000, 0.000, 0.000, 10:33:37.349, 1583739217349
151, -29265.05, -33714.03, -22921.02, -18615.81, -23658.56, -23165.57, -26089.65, -25710.74, 0.000, 0.000, 0.000, 10:33:37.349, 1583739217349
152, -28539.82, -33642.10, -22731.39, -18452.26, -22784.21, -23024.80, -25699.25, -25267.37, 0.000, 0.000, 0.000, 10:33:37.349, 1583739217349
153, -28382.56, -33654.64, -22657.94, -18349.24, -22467.75, -22896.68, -25656.02, -25104.72, 0.000, 0.000, 0.000, 10:33:37.349, 1583739217349
154, -28948.12, -33721.56, -22786.22, -18468.29, -23120.02, -23018.52, -25978.22, -25424.08, 0.000, 0.000, 0.000, 10:33:37.349, 1583739217349
155, -29429.38, -33742.48, -22943.48, -18661.61, -23824.10, -23235.60, -26215.89, -25778.42, 0.000, 0.000, 0.000, 10:33:37.349, 1583739217349
156, -29269.29, -33716.62, -22920.28, -18612.30, -23662.56, -23163.20, -26094.07, -25713.04, 0.000, -0.020, 0.976, 10:33:37.349, 1583739217349
157, -28542.57, -33645.90, -22738.18, -18449.51, -22792.65, -23024.58, -25706.65, -25272.65, 0.000, 0.000, 0.000, 10:33:37.349, 1583739217349
158, -28378.64, -33658.73, -22654.43, -18341.71, -22462.00, -22893.57, -25655.91, -25104.12, 0.000, 0.000, 0.000, 10:33:37.350, 1583739217350
159, -28943.23, -33717.58, -22780.09, -18461.62, -23106.27, -23014.50, -25972.66, -25420.91, 0.000, 0.000, 0.000, 10:33:37.350, 1583739217350
160, -29430.00, -33746.06, -22942.68, -18664.62, -23816.77, -23239.38, -26212.45, -25780.52, 0.000, 0.000, 0.000, 10:33:37.350, 1583739217350
161, -29277.43, -33725.99, -22929.45, -18627.92, -23669.09, -23175.65, -26096.62, -25722.59, 0.000, 0.000, 0.000, 10:33:37.350, 1583739217350
162, -28548.21, -33649.03, -22742.97, -18458.56, -22796.74, -23030.28, -25705.94, -25275.73, 0.000, 0.000, 0.000, 10:33:37.350, 1583739217350
163, -28374.15, -33654.86, -22663.44, -18350.60, -22466.27, -22900.52, -25655.80, -25107.27, 0.000, 0.000, 0.000, 10:33:37.350, 1583739217350
164, -28940.50, -33715.39, -22794.73, -18471.23, -23113.96, -23023.17, -25975.61, -25426.52, 0.000, 0.000, 0.000, 10:33:37.350, 1583739217350
165, -29430.29, -33745.75, -22950.26, -18672.89, -23822.40, -23246.95, -26215.27, -25787.74, 0.000, 0.000, 0.000, 10:33:37.350, 1583739217350
166, -29283.44, -33717.25, -22932.75, -18636.64, -23682.54, -23185.22, -26100.96, -25735.48, 0.004, -0.018, 0.978, 10:33:37.351, 1583739217351
167, -28553.55, -33634.77, -22747.41, -18464.51, -22810.96, -23040.45, -25710.05, -25289.81, 0.000, 0.000, 0.000, 10:33:37.351, 1583739217351
168, -28372.99, -33657.30, -22668.85, -18356.95, -22470.28, -22910.67, -25659.06, -25115.13, 0.000, 0.000, 0.000, 10:33:37.351, 1583739217351
169, -28934.96, -33721.38, -22790.98, -18472.69, -23110.38, -23027.71, -25980.04, -25429.11, 0.000, 0.000, 0.000, 10:33:37.351, 1583739217351
170, -29426.29, -33749.55, -22950.93, -18674.08, -23829.04, -23252.56, -26222.46, -25790.31, 0.000, 0.000, 0.000, 10:33:37.351, 1583739217351
171, -29287.38, -33728.60, -22936.11, -18636.15, -23693.00, -23187.95, -26106.30, -25736.87, 0.000, 0.000, 0.000, 10:33:37.351, 1583739217351
172, -28556.34, -33647.33, -22743.17, -18458.25, -22814.94, -23035.84, -25709.11, -25285.46, 0.000, 0.000, 0.000, 10:33:37.351, 1583739217351
173, -28370.13, -33652.36, -22657.07, -18346.00, -22465.76, -22900.86, -25648.71, -25102.51, 0.000, 0.000, 0.000, 10:33:37.351, 1583739217351
174, -28928.03, -33713.22, -22779.80, -18460.21, -23099.50, -23014.12, -25965.17, -25411.38, 0.000, 0.000, 0.000, 10:33:37.352, 1583739217352
175, -29422.76, -33742.06, -22934.56, -18654.92, -23814.98, -23234.35, -26209.16, -25771.05, 0.000, 0.000, 0.000, 10:33:37.352, 1583739217352
176, -29284.83, -33718.16, -22917.94, -18615.47, -23681.25, -23168.12, -26100.06, -25719.59, 0.002, -0.016, 0.970, 10:33:37.352, 1583739217352
177, -28558.00, -33642.13, -22734.56, -18450.45, -22810.36, -23024.40, -25709.62, -25274.86, 0.000, 0.000, 0.000, 10:33:37.352, 1583739217352
178, -28368.01, -33651.80, -22655.10, -18343.96, -22457.89, -22891.05, -25647.11, -25092.65, 0.000, 0.000, 0.000, 10:33:37.352, 1583739217352
179, -28924.43, -33706.92, -22779.24, -18454.94, -23089.06, -23000.37, -25962.64, -25400.54, 0.000, 0.000, 0.000, 10:33:37.352, 1583739217352
180, -29416.32, -33731.26, -22944.38, -18655.03, -23815.47, -23228.13, -26208.65, -25763.85, 0.000, 0.000, 0.000, 10:33:37.352, 1583739217352
181, -29287.22, -33716.06, -22931.03, -18619.99, -23690.81, -23168.57, -26103.28, -25720.60, 0.000, 0.000, 0.000, 10:33:37.353, 1583739217353
182, -28561.19, -33644.83, -22733.00, -18453.04, -22815.86, -23023.06, -25709.87, -25277.52, 0.000, 0.000, 0.000, 10:33:37.353, 1583739217353
183, -28365.88, -33653.84, -22655.44, -18347.07, -22456.39, -22894.15, -25647.17, -25094.95, 0.000, 0.000, 0.000, 10:33:37.353, 1583739217353
184, -28923.63, -33718.34, -22790.29, -18463.52, -23088.77, -23009.82, -25968.61, -25407.72, 0.000, 0.000, 0.000, 10:33:37.355, 1583739217355
185, -29419.46, -33739.15, -22940.62, -18658.74, -23803.82, -23231.75, -26209.30, -25768.45, 0.000, 0.000, 0.000, 10:33:37.355, 1583739217355
186, -29295.42, -33717.16, -22916.44, -18613.66, -23682.39, -23165.39, -26100.49, -25723.28, 0.000, 0.000, 0.000, 10:33:37.356, 1583739217356
187, -28571.94, -33643.38, -22736.35, -18453.18, -22818.56, -23027.50, -25713.60, -25286.26, 0.004, -0.018, 0.970, 10:33:37.356, 1583739217356
188, -28367.07, -33649.66, -22657.65, -18345.51, -22454.65, -22898.15, -25649.14, -25100.40, 0.000, 0.000, 0.000, 10:33:37.356, 1583739217356
189, -28923.51, -33718.30, -22783.29, -18459.79, -23081.17, -23011.79, -25969.28, -25410.96, 0.000, 0.000, 0.000, 10:33:37.356, 1583739217356
190, -29420.51, -33745.93, -22935.88, -18652.33, -23803.20, -23235.11, -26213.83, -25774.00, 0.000, 0.000, 0.000, 10:33:37.356, 1583739217356
191, -29302.62, -33720.89, -22923.05, -18616.23, -23694.39, -23174.94, -26111.69, -25735.98, 0.000, 0.000, 0.000, 10:33:37.356, 1583739217356
192, -28581.67, -33640.43, -22744.93, -18460.53, -22835.14, -23038.86, -25724.38, -25299.63, 0.000, 0.000, 0.000, 10:33:37.357, 1583739217357
193, -28372.12, -33652.27, -22661.83, -18351.94, -22460.80, -22908.79, -25651.40, -25107.36, 0.000, 0.000, 0.000, 10:33:37.357, 1583739217357
194, -28922.91, -33722.84, -22785.75, -18459.30, -23079.90, -23015.30, -25966.15, -25411.56, 0.000, 0.000, 0.000, 10:33:37.357, 1583739217357
195, -29422.58, -33742.84, -22940.89, -18657.40, -23803.76, -23240.54, -26213.59, -25776.79, 0.000, 0.000, 0.000, 10:33:37.357, 1583739217357
196, -29311.56, -33719.21, -22929.16, -18627.59, -23701.72, -23183.85, -26116.49, -25743.04, 0.000, 0.000, 0.000, 10:33:37.358, 1583739217358
197, -28584.01, -33642.53, -22744.64, -18462.59, -22836.42, -23040.04, -25722.97, -25299.96, 0.002, -0.022, 0.970, 10:33:37.358, 1583739217358
198, -28366.24, -33653.03, -22654.77, -18345.89, -22453.36, -22903.41, -25645.50, -25099.60, 0.000, 0.000, 0.000, 10:33:37.358, 1583739217358
199, -28912.92, -33715.10, -22773.23, -18442.36, -23063.22, -22999.99, -25955.98, -25395.47, 0.000, 0.000, 0.000, 10:33:37.358, 1583739217358
200, -29413.15, -33741.75, -22937.40, -18647.03, -23797.79, -23231.33, -26206.82, -25763.18, 0.000, 0.000, 0.000, 10:33:37.358, 1583739217358
201, -29304.50, -33720.54, -22921.91, -18617.79, -23700.76, -23174.49, -26109.25, -25732.18, 0.000, 0.000, 0.000, 10:33:37.358, 1583739217358
202, -28586.12, -33648.00, -22736.39, -18450.07, -22836.46, -23030.14, -25718.83, -25292.72, 0.000, 0.000, 0.000, 10:33:37.358, 1583739217358
203, -28359.49, -33645.77, -22650.41, -18336.43, -22448.19, -22893.48, -25639.89, -25089.34, 0.000, 0.000, 0.000, 10:33:37.358, 1583739217358
204, -28904.25, -33711.28, -22778.73, -18448.08, -23061.57, -22996.52, -25955.98, -25388.54, 0.000, 0.000, 0.000, 10:33:37.359, 1583739217359
205, -29411.47, -33747.29, -22938.88, -18646.99, -23792.63, -23223.26, -26203.93, -25754.35, 0.000, 0.000, 0.000, 10:33:37.359, 1583739217359
206, -29314.02, -33732.52, -22924.73, -18614.04, -23700.38, -23166.64, -26112.25, -25727.13, 0.000, 0.000, 0.000, 10:33:37.359, 1583739217359
207, -28592.57, -33656.18, -22738.79, -18446.27, -22838.68, -23024.75, -25723.68, -25291.18, 0.004, -0.018, 0.976, 10:33:37.359, 1583739217359
208, -28362.40, -33656.47, -22646.25, -18332.47, -22439.47, -22891.87, -25636.78, -25088.54, 0.000, 0.000, 0.000, 10:33:37.359, 1583739217359
209, -28906.10, -33721.14, -22769.95, -18443.72, -23048.38, -22994.04, -25947.78, -25388.59, 0.000, 0.000, 0.000, 10:33:37.359, 1583739217359
210, -29414.11, -33747.55, -22934.50, -18656.46, -23792.49, -23231.24, -26201.52, -25763.34, 0.000, 0.000, 0.000, 10:33:37.360, 1583739217360
211, -29320.08, -33732.07, -22928.78, -18631.56, -23714.31, -23180.86, -26115.13, -25743.80, 0.000, 0.000, 0.000, 10:33:37.360, 1583739217360
212, -28601.13, -33659.65, -22744.11, -18462.14, -22850.17, -23036.24, -25725.22, -25304.68, 0.000, 0.000, 0.000, 10:33:37.360, 1583739217360
213, -28366.75, -33662.26, -22659.04, -18356.24, -22448.91, -22907.32, -25640.74, -25101.03, 0.000, 0.000, 0.000, 10:33:37.360, 1583739217360
214, -28908.20, -33727.48, -22778.37, -18456.97, -23049.59, -23004.04, -25953.17, -25395.63, 0.000, 0.000, 0.000, 10:33:37.360, 1583739217360
215, -29414.54, -33746.64, -22931.08, -18645.78, -23780.62, -23228.51, -26202.97, -25760.85, 0.000, 0.000, 0.000, 10:33:37.360, 1583739217360
216, -29329.02, -33727.17, -22933.76, -18623.38, -23711.78, -23181.15, -26121.95, -25745.68, 0.000, 0.000, 0.000, 10:33:37.361, 1583739217361
217, -28607.84, -33657.41, -22751.59, -18461.33, -22856.94, -23041.52, -25733.61, -25310.15, -0.002, -0.020, 0.970, 10:33:37.361, 1583739217361
218, -28364.14, -33661.43, -22650.68, -18345.24, -22450.14, -22907.34, -25639.71, -25098.17, 0.000, 0.000, 0.000, 10:33:37.361, 1583739217361
219, -28906.08, -33725.88, -22772.83, -18452.44, -23048.51, -23006.25, -25953.08, -25393.46, 0.000, 0.000, 0.000, 10:33:37.361, 1583739217361
220, -29419.59, -33757.14, -22944.67, -18664.18, -23794.53, -23245.63, -26215.18, -25770.11, 0.000, 0.000, 0.000, 10:33:37.361, 1583739217361
221, -29332.57, -33735.75, -22936.26, -18633.11, -23723.78, -23190.20, -26127.89, -25749.30, 0.000, 0.000, 0.000, 10:33:37.361, 1583739217361
222, -28621.18, -33661.21, -22747.41, -18465.87, -22863.31, -23046.17, -25736.67, -25312.70, 0.000, 0.000, 0.000, 10:33:37.361, 1583739217361
223, -28374.13, -33661.75, -22650.47, -18347.59, -22442.47, -22908.44, -25640.33, -25096.36, 0.000, 0.000, 0.000, 10:33:37.362, 1583739217362
224, -28906.44, -33729.45, -22763.71, -18440.70, -23030.97, -22994.47, -25944.88, -25381.72, 0.000, 0.000, 0.000, 10:33:37.362, 1583739217362
225, -29420.24, -33758.40, -22926.05, -18647.59, -23777.49, -23229.63, -26201.03, -25755.80, 0.000, 0.000, 0.000, 10:33:37.821, 1583739217821
226, -29341.29, -33742.39, -22924.39, -18622.15, -23717.30, -23178.58, -26118.59, -25740.60, 0.000, 0.000, 0.000, 10:33:37.821, 1583739217821
227, -28629.28, -33667.70, -22745.74, -18461.33, -22864.92, -23037.27, -25729.29, -25307.20, 0.004, -0.018, 0.970, 10:33:37.822, 1583739217822
228, -28375.14, -33673.17, -22651.84, -18351.01, -22443.77, -22905.49, -25632.58, -25091.38, 0.000, 0.000, 0.000, 10:33:37.822, 1583739217822
229, -28912.70, -33744.74, -22763.93, -18445.87, -23026.23, -22993.78, -25940.96, -25376.22, 0.000, 0.000, 0.000, 10:33:37.822, 1583739217822
230, -29437.96, -33784.30, -22931.86, -18653.92, -23779.35, -23233.21, -26203.57, -25754.66, 0.000, 0.000, 0.000, 10:33:37.822, 1583739217822
231, -29370.48, -33772.95, -22934.92, -18634.45, -23731.90, -23187.23, -26128.05, -25748.85, 0.000, 0.000, 0.000, 10:33:37.822, 1583739217822
232, -28655.88, -33702.50, -22746.65, -18465.71, -22874.89, -23040.22, -25734.95, -25311.67, 0.000, 0.000, 0.000, 10:33:37.822, 1583739217822
233, -28403.90, -33713.11, -22648.33, -18342.94, -22444.30, -22900.37, -25633.02, -25088.02, 0.000, 0.000, 0.000, 10:33:37.822, 1583739217822
234, -28949.11, -33793.20, -22768.00, -18441.13, -23029.34, -22992.61, -25943.11, -25376.87, 0.000, 0.000, 0.000, 10:33:37.823, 1583739217823
235, -29479.58, -33832.56, -22937.07, -18656.98, -23784.04, -23236.56, -26207.80, -25758.08, 0.000, 0.000, 0.000, 10:33:37.823, 1583739217823
236, -29424.24, -33831.42, -22943.44, -18642.05, -23743.23, -23195.70, -26137.26, -25758.42, 0.000, 0.000, 0.000, 10:33:37.823, 1583739217823
237, -28729.30, -33773.08, -22764.83, -18478.01, -22893.42, -23056.36, -25751.91, -25329.26, 0.000, -0.018, 0.972, 10:33:37.826, 1583739217826
238, -28477.51, -33787.28, -22672.27, -18360.19, -22462.23, -22923.93, -25650.97, -25108.03, 0.000, 0.000, 0.000, 10:33:37.826, 1583739217826
239, -29018.98, -33870.34, -22791.83, -18456.24, -23041.27, -23011.16, -25960.48, -25393.97, 0.000, 0.000, 0.000, 10:33:37.827, 1583739217827
240, -29553.45, -33917.14, -22946.52, -18666.41, -23787.71, -23247.54, -26218.06, -25769.62, 0.000, 0.000, 0.000, 10:33:37.827, 1583739217827
241, -29507.30, -33920.49, -22951.35, -18663.42, -23756.21, -23214.45, -26152.79, -25779.14, 0.000, 0.000, 0.000, 10:33:37.827, 1583739217827
242, -28800.60, -33858.00, -22770.93, -18493.88, -22909.67, -23069.97, -25764.41, -25347.59, 0.000, 0.000, 0.000, 10:33:37.827, 1583739217827
243, -28535.62, -33868.14, -22665.43, -18356.10, -22460.17, -22923.88, -25652.18, -25112.21, 0.000, 0.000, 0.000, 10:33:37.827, 1583739217827
244, -29073.43, -33946.06, -22785.35, -18457.71, -23035.44, -23013.65, -25959.34, -25396.52, 0.000, 0.000, 0.000, 10:33:37.827, 1583739217827
245, -29602.74, -33983.21, -22950.14, -18670.37, -23795.31, -23256.79, -26224.99, -25778.96, 0.000, 0.000, 0.000, 10:33:37.828, 1583739217828
246, -29549.18, -33973.24, -22948.83, -18646.09, -23762.79, -23212.53, -26158.13, -25782.11, 0.000, 0.000, 0.000, 10:33:37.828, 1583739217828
247, -28836.03, -33898.50, -22767.35, -18479.46, -22916.77, -23067.83, -25769.17, -25350.54, -0.004, -0.014, 0.974, 10:33:37.828, 1583739217828
248, -28561.64, -33902.86, -22670.01, -18360.42, -22472.51, -22932.40, -25662.84, -25121.95, 0.000, 0.000, 0.000, 10:33:37.828, 1583739217828
249, -29092.83, -33975.68, -22787.42, -18457.56, -23041.09, -23018.59, -25971.09, -25405.24, 0.000, 0.000, 0.000, 10:33:37.828, 1583739217828
250, -29615.05, -33994.90, -22957.05, -18678.26, -23802.44, -23265.24, -26236.79, -25788.39, 0.000, 0.000, 0.000, 10:33:37.829, 1583739217829
251, -29565.23, -33981.71, -22969.01, -18669.05, -23785.85, -23230.48, -26174.61, -25799.52, 0.000, 0.000, 0.000, 10:33:37.829, 1583739217829
252, -28856.75, -33918.10, -22789.14, -18502.48, -22940.69, -23087.23, -25789.06, -25370.53, 0.000, 0.000, 0.000, 10:33:37.829, 1583739217829
253, -28569.04, -33917.52, -22684.45, -18377.69, -22481.09, -22947.11, -25672.10, -25132.66, 0.000, 0.000, 0.000, 10:33:37.829, 1583739217829
254, -29090.82, -33983.59, -22797.84, -18462.92, -23041.88, -23024.44, -25974.76, -25408.37, 0.000, 0.000, 0.000, 10:33:37.829, 1583739217829
255, -29612.08, -34009.63, -22961.92, -18670.84, -23802.37, -23260.97, -26235.40, -25784.84, 0.000, 0.000, 0.000, 10:33:37.829, 1583739217829
0, -29564.00, -33991.01, -22961.14, -18654.59, -23779.37, -23218.34, -26165.94, -25791.39, 0.000, 0.000, 0.000, 10:33:37.830, 1583739217830
1, -28854.92, -33914.46, -22783.04, -18492.94, -22935.71, -23077.97, -25779.76, -25366.35, -0.004, -0.016, 0.970, 10:33:37.830, 1583739217830
2, -28558.02, -33907.75, -22677.99, -18372.64, -22468.89, -22941.18, -25659.15, -25127.09, 0.000, 0.000, 0.000, 10:33:37.830, 1583739217830
3, -29073.79, -33976.48, -22788.32, -18466.81, -23022.07, -23019.66, -25959.29, -25401.17, 0.000, 0.000, 0.000, 10:33:37.830, 1583739217830
4, -29603.05, -34000.45, -22957.77, -18678.14, -23790.48, -23259.94, -26228.56, -25781.75, 0.000, 0.000, 0.000, 10:33:37.831, 1583739217831
5, -29559.53, -33980.21, -22962.71, -18652.31, -23778.61, -23213.63, -26166.11, -25789.71, 0.000, 0.000, 0.000, 10:33:37.831, 1583739217831
6, -28845.55, -33893.16, -22780.29, -18484.71, -22934.05, -23068.05, -25776.28, -25359.53, 0.000, 0.000, 0.000, 10:33:37.831, 1583739217831
7, -28539.76, -33883.50, -22672.40, -18363.30, -22464.38, -22930.68, -25653.41, -25116.05, 0.000, 0.000, 0.000, 10:33:37.831, 1583739217831
8, -29051.25, -33952.39, -22780.25, -18448.75, -23013.33, -23004.01, -25954.11, -25385.81, 0.000, 0.000, 0.000, 10:33:37.831, 1583739217831
9, -29575.36, -33976.30, -22938.75, -18658.92, -23770.95, -23243.04, -26216.94, -25763.31, 0.000, 0.000, 0.000, 10:33:37.832, 1583739217832
10, -29536.58, -33958.91, -22950.75, -18650.90, -23771.66, -23207.84, -26159.12, -25779.56, 0.000, 0.000, 0.000, 10:33:37.832, 1583739217832
11, -28832.61, -33879.30, -22775.55, -18486.59, -22937.58, -23065.64, -25775.67, -25355.53, 0.000, -0.016, 0.966, 10:33:37.832, 1583739217832
12, -28521.76, -33870.74, -22665.85, -18358.54, -22460.06, -22925.07, -25648.22, -25107.69, 0.000, 0.000, 0.000, 10:33:37.832, 1583739217832
13, -29027.45, -33928.27, -22777.43, -18445.91, -23006.90, -22998.45, -25950.08, -25377.30, 0.000, 0.000, 0.000, 10:33:37.832, 1583739217832
14, -29557.50, -33950.11, -22949.76, -18663.97, -23777.23, -23244.81, -26222.08, -25762.60, 0.000, 0.000, 0.000, 10:33:37.833, 1583739217833
15, -29521.54, -33929.86, -22962.59, -18657.87, -23784.20, -23210.70, -26165.35, -25782.80, 0.000, 0.000, 0.000, 10:33:37.833, 1583739217833
16, -28817.03, -33850.20, -22785.79, -18497.34, -22946.57, -23069.84, -25779.41, -25361.34, 0.000, 0.000, 0.000, 10:33:37.833, 1583739217833
17, -28502.36, -33835.55, -22681.74, -18367.19, -22464.87, -22930.01, -25651.60, -25112.05, 0.000, 0.000, 0.000, 10:33:37.833, 1583739217833
18, -28994.93, -33886.61, -22774.37, -18439.45, -22990.78, -22990.87, -25938.28, -25369.34, 0.000, 0.000, 0.000, 10:33:37.834, 1583739217834
19, -29527.17, -33910.30, -22932.08, -18650.25, -23754.81, -23234.44, -26202.77, -25752.83, 0.000, 0.000, 0.000, 10:33:37.834, 1583739217834
20, -29502.33, -33904.51, -22945.79, -18645.82, -23769.00, -23203.17, -26149.66, -25777.19, 0.000, 0.000, 0.000, 10:33:37.834, 1583739217834
21, -28796.80, -33828.09, -22772.13, -18486.37, -22936.85, -23060.96, -25764.90, -25355.24, 0.002, -0.016, 0.968, 10:33:37.834, 1583739217834
22, -28471.81, -33807.79, -22660.82, -18359.28, -22445.31, -22920.84, -25630.79, -25101.99, 0.000, 0.000, 0.000, 10:33:37.835, 1583739217835
23, -28972.24, -33869.82, -22764.83, -18438.62, -22980.81, -22987.00, -25926.57, -25363.22, 0.000, 0.000, 0.000, 10:33:37.835, 1583739217835
24, -29498.94, -33893.94, -22931.19, -18649.15, -23747.83, -23229.32, -26196.45, -25743.44, 0.000, 0.000, 0.000, 10:33:37.835, 1583739217835
25, -29476.68, -33870.13, -22946.50, -18646.67, -23769.89, -23202.07, -26149.66, -25771.87, 0.000, 0.000, 0.000, 10:33:37.835, 1583739217835
26, -28773.71, -33786.16, -22770.39, -18491.91, -22941.74, -23064.23, -25765.64, -25353.96, 0.000, 0.000, 0.000, 10:33:37.835, 1583739217835
27, -28445.16, -33771.12, -22659.35, -18372.91, -22443.19, -22928.55, -25629.04, -25100.70, 0.000, 0.000, 0.000, 10:33:37.835, 1583739217835
28, -28941.91, -33831.84, -22761.81, -18443.14, -22967.13, -22986.80, -25922.79, -25356.44, 0.000, 0.000, 0.000, 10:33:37.836, 1583739217836
29, -29475.07, -33857.73, -22926.32, -18648.30, -23737.60, -23224.87, -26193.54, -25737.90, 0.000, 0.000, 0.000, 10:33:37.836, 1583739217836
30, -29457.81, -33836.74, -22939.75, -18641.22, -23764.87, -23192.86, -26145.57, -25766.11, 0.000, 0.000, 0.000, 10:33:37.836, 1583739217836
31, -28748.30, -33749.86, -22757.96, -18474.70, -22928.40, -23044.36, -25756.05, -25338.45, 0.000, 0.000, 0.000, 10:33:37.836, 1583739217836
32, -28408.53, -33737.59, -22640.13, -18343.29, -22421.15, -22901.15, -25614.45, -25075.62, 0.004, -0.020, 0.964, 10:33:37.836, 1583739217836
33, -28898.10, -33797.49, -22745.25, -18421.05, -22946.93, -22963.44, -25910.30, -25333.51, 0.000, 0.000, 0.000, 10:33:37.837, 1583739217837
34, -29438.12, -33830.06, -22917.22, -18639.16, -23729.88, -23213.20, -26191.77, -25726.72, 0.000, 0.000, 0.000, 10:33:37.837, 1583739217837
35, -29434.05, -33804.82, -22937.18, -18638.94, -23772.46, -23189.04, -26151.96, -25765.10, 0.000, 0.000, 0.000, 10:33:37.837, 1583739217837
36, -28734.13, -33721.72, -22764.13, -18479.84, -22947.11, -23048.94, -25767.83, -25349.47, 0.000, 0.000, 0.000, 10:33:37.837, 1583739217837
37, -28390.38, -33710.36, -22652.98, -18353.55, -22437.62, -22910.25, -25624.53, -25087.62, 0.000, 0.000, 0.000, 10:33:37.837, 1583739217837
38, -28882.23, -33775.86, -22757.47, -18425.10, -22955.38, -22969.12, -25917.94, -25343.12, 0.000, 0.000, 0.000, 10:33:37.837, 1583739217837
39, -29416.15, -33795.66, -22926.18, -18638.25, -23732.90, -23213.31, -26191.95, -25729.25, 0.000, 0.000, 0.000, 10:33:37.837, 1583739217837
40, -29409.49, -33780.50, -22948.94, -18641.27, -23778.88, -23191.59, -26153.64, -25768.88, 0.000, 0.000, 0.000, 10:33:37.838, 1583739217838
41, -28716.16, -33705.31, -22770.30, -18480.56, -22953.38, -23051.49, -25769.68, -25354.25, 0.000, 0.000, 0.000, 10:33:37.838, 1583739217838
42, -28367.89, -33690.43, -22650.63, -18350.87, -22437.31, -22912.21, -25622.97, -25090.35, 0.002, -0.024, 0.974, 10:33:37.838, 1583739217838
43, -28857.40, -33750.91, -22748.06, -18423.11, -22946.75, -22968.96, -25912.20, -25343.77, 0.000, 0.000, 0.000, 10:33:37.838, 1583739217838
44, -29402.96, -33780.23, -22923.28, -18641.67, -23730.60, -23219.35, -26191.66, -25734.95, 0.000, 0.000, 0.000, 10:33:37.838, 1583739217838
45, -29405.64, -33763.83, -22946.79, -18644.62, -23785.14, -23197.47, -26158.27, -25777.01, 0.000, 0.000, 0.000, 10:33:37.839, 1583739217839
46, -28706.93, -33677.98, -22768.40, -18478.79, -22960.94, -23051.64, -25773.84, -25357.81, 0.000, 0.000, 0.000, 10:33:37.839, 1583739217839
47, -28349.59, -33664.54, -22649.04, -18349.51, -22434.60, -22912.97, -25621.16, -25088.07, 0.000, 0.000, 0.000, 10:33:37.839, 1583739217839
48, -28832.90, -33731.80, -22751.71, -18425.48, -22942.43, -22970.28, -25908.44, -25336.35, 0.000, 0.000, 0.000, 10:33:37.839, 1583739217839
49, -29378.48, -33752.56, -22932.15, -18650.96, -23729.75, -23224.33, -26189.72, -25728.69, 0.000, 0.000, 0.000, 10:33:37.839, 1583739217839
50, -29389.79, -33743.00, -22961.61, -18670.79, -23793.70, -23214.43, -26161.58, -25782.78, 0.000, 0.000, 0.000, 10:33:37.840, 1583739217840
51, -28696.29, -33670.49, -22777.70, -18508.00, -22970.15, -23071.63, -25777.80, -25367.69, 0.000, 0.000, 0.000, 10:33:37.840, 1583739217840
52, -28337.47, -33651.33, -22654.30, -18363.10, -22437.57, -22923.21, -25621.85, -25089.41, 0.006, -0.022, 0.976, 10:33:37.840, 1583739217840
53, -28821.86, -33717.20, -22751.59, -18429.06, -22935.19, -22972.38, -25909.38, -25333.82, 0.000, 0.000, 0.000, 10:33:37.840, 1583739217840
54, -29364.89, -33745.07, -22916.42, -18635.63, -23713.86, -23212.49, -26183.44, -25717.58, 0.000, 0.000, 0.000, 10:33:37.840, 1583739217840
55, -29380.03, -33734.64, -22934.28, -18629.71, -23775.57, -23184.48, -26147.16, -25760.34, 0.000, 0.000, 0.000, 10:33:37.841, 1583739217841
56, -28693.04, -33657.46, -22757.09, -18466.54, -22956.72, -23038.61, -25763.51, -25343.46, 0.000, 0.000, 0.000, 10:33:37.841, 1583739217841
57, -28330.32, -33647.51, -22639.77, -18341.86, -22422.15, -22903.16, -25607.32, -25070.86, 0.000, 0.000, 0.000, 10:33:37.841, 1583739217841
58, -28808.25, -33714.81, -22738.34, -18403.24, -22917.18, -22949.52, -25890.79, -25311.07, 0.000, 0.000, 0.000, 10:33:37.841, 1583739217841
59, -29360.83, -33739.22, -22908.30, -18619.03, -23707.06, -23195.90, -26170.45, -25701.06, 0.000, 0.000, 0.000, 10:33:37.841, 1583739217841
60, -29383.27, -33732.71, -22932.93, -18628.61, -23777.43, -23179.45, -26144.59, -25754.89, 0.000, 0.000, 0.000, 10:33:37.841, 1583739217841
61, -28699.19, -33654.95, -22763.15, -18473.07, -22966.77, -23038.90, -25765.46, -25346.81, 0.000, 0.000, 0.000, 10:33:37.842, 1583739217842
62, -28334.39, -33642.93, -22647.26, -18352.44, -22428.95, -22907.14, -25606.25, -25075.73, 0.000, -0.022, 0.976, 10:33:37.842, 1583739217842
63, -28810.39, -33711.32, -22742.09, -18418.69, -22915.70, -22957.50, -25890.65, -25318.36, 0.000, 0.000, 0.000, 10:33:37.842, 1583739217842
64, -29363.93, -33747.67, -22914.67, -18632.26, -23706.06, -23207.08, -26175.88, -25712.44, 0.000, 0.000, 0.000, 10:33:37.842, 1583739217842
65, -29388.43, -33740.80, -22941.70, -18641.06, -23786.12, -23192.73, -26149.89, -25769.62, 0.000, 0.000, 0.000, 10:33:37.842, 1583739217842
66, -28705.07, -33668.30, -22773.19, -18486.55, -22980.25, -23055.02, -25775.20, -25366.23, 0.000, 0.000, 0.000, 10:33:37.842, 1583739217842
67, -28332.02, -33652.09, -22662.81, -18364.73, -22443.56, -22922.81, -25619.10, -25091.84, 0.000, 0.000, 0.000, 10:33:37.843, 1583739217843
68, -28802.28, -33710.25, -22757.79, -18429.33, -22927.10, -22966.91, -25901.33, -25326.96, 0.000, 0.000, 0.000, 10:33:37.843, 1583739217843
69, -29355.66, -33741.50, -22923.63, -18644.80, -23712.43, -23213.56, -26183.64, -25716.51, 0.000, 0.000, 0.000, 10:33:37.843, 1583739217843
70, -29388.83, -33730.48, -22952.89, -18655.99, -23797.92, -23200.86, -26162.31, -25776.34, 0.000, 0.000, 0.000, 10:33:37.843, 1583739217843
71, -28708.65, -33657.23, -22782.71, -18494.28, -22993.17, -23058.60, -25782.60, -25367.49, 0.000, 0.000, 0.000, 10:33:37.843, 1583739217843
72, -28330.48, -33648.07, -22665.12, -18370.38, -22444.03, -22925.80, -25618.32, -25086.30, -0.002, -0.018, 0.974, 10:33:37.844, 1583739217844
73, -28796.67, -33712.04, -22755.84, -18431.61, -22914.92, -22967.22, -25895.68, -25319.76, 0.000, 0.000, 0.000, 10:33:37.844, 1583739217844
74, -29352.51, -33741.36, -22918.54, -18642.90, -23705.57, -23213.22, -26178.09, -25711.70, 0.000, 0.000, 0.000, 10:33:37.844, 1583739217844
75, -29392.52, -33733.72, -22940.47, -18645.18, -23796.31, -23195.54, -26156.28, -25772.99, 0.000, 0.000, 0.000, 10:33:37.844, 1583739217844
76, -28709.38, -33657.30, -22765.07, -18480.02, -22983.02, -23047.13, -25772.66, -25361.07, 0.000, 0.000, 0.000, 10:33:37.844, 1583739217844
77, -28320.02, -33637.59, -22641.51, -18347.25, -22423.85, -22906.31, -25600.79, -25072.33, 0.000, 0.000, 0.000, 10:33:37.844, 1583739217844
78, -28786.97, -33713.56, -22738.34, -18408.87, -22896.14, -22948.89, -25882.76, -25306.85, 0.000, 0.000, 0.000, 10:33:37.845, 1583739217845
79, -29344.31, -33743.58, -22910.38, -18626.98, -23690.63, -23199.63, -26170.81, -25701.22, 0.000, 0.000, 0.000, 10:33:37.845, 1583739217845
80, -29391.18, -33736.76, -22947.57, -18645.24, -23795.82, -23194.31, -26159.83, -25772.90, 0.000, 0.000, 0.000, 10:33:37.845, 1583739217845
81, -28717.79, -33662.87, -22777.48, -18488.56, -22994.80, -23052.20, -25783.23, -25369.74, 0.000, 0.000, 0.000, 10:33:37.845, 1583739217845
82, -28328.62, -33645.10, -22652.64, -18357.38, -22432.37, -22914.54, -25608.88, -25079.88, 0.002, -0.016, 0.974, 10:33:37.845, 1583739217845
83, -28791.46, -33718.86, -22747.75, -18418.11, -22901.64, -22957.16, -25887.83, -25312.81, 0.000, 0.000, 0.000, 10:33:37.845, 1583739217845
84, -29349.61, -33744.67, -22916.10, -18633.38, -23697.01, -23206.50, -26175.32, -25707.21, 0.000, 0.000, 0.000, 10:33:37.846, 1583739217846
85, -29399.43, -33737.21, -22951.31, -18654.07, -23808.50, -23202.92, -26167.66, -25781.22, 0.000, 0.000, 0.000, 10:33:37.846, 1583739217846
86, -28726.95, -33665.68, -22782.71, -18496.43, -23012.71, -23061.41, -25792.88, -25379.42, 0.000, 0.000, 0.000, 10:33:37.846, 1583739217846
87, -28327.35, -33646.88, -22661.88, -18365.29, -22443.90, -22923.19, -25618.99, -25086.23, 0.000, 0.000, 0.000, 10:33:37.846, 1583739217846
88, -28780.62, -33708.26, -22752.26, -18420.09, -22902.56, -22956.49, -25891.30, -25309.37, 0.000, 0.000, 0.000, 10:33:37.846, 1583739217846
89, -29345.02, -33737.77, -22915.70, -18632.32, -23693.83, -23203.81, -26175.03, -25701.51, 0.000, 0.000, 0.000, 10:33:37.847, 1583739217847
90, -29400.75, -33727.77, -22945.23, -18645.20, -23806.04, -23196.44, -26164.95, -25775.74, 0.000, 0.000, 0.000, 10:33:38.300, 1583739218300
91, -28735.87, -33658.86, -22775.96, -18489.45, -23013.82, -23056.58, -25793.22, -25379.38, 0.000, 0.000, 0.000, 10:33:38.300, 1583739218300
92, -28330.30, -33642.79, -22653.18, -18361.80, -22440.57, -22921.78, -25613.44, -25083.78, 0.000, -0.020, 0.976, 10:33:38.301, 1583739218301
93, -28779.97, -33706.92, -22741.49, -18416.29, -22893.21, -22957.03, -25884.71, -25306.44, 0.000, 0.000, 0.000, 10:33:38.301, 1583739218301
94, -29346.52, -33740.76, -22912.46, -18630.85, -23692.87, -23206.63, -26176.22, -25702.52, 0.000, 0.000, 0.000, 10:33:38.301, 1583739218301
95, -29409.06, -33740.43, -22948.09, -18650.43, -23813.19, -23204.71, -26170.14, -25783.43, 0.000, 0.000, 0.000, 10:33:38.301, 1583739218301
96, -28740.10, -33668.41, -22782.60, -18493.61, -23021.56, -23062.33, -25794.58, -25384.79, 0.000, 0.000, 0.000, 10:33:38.301, 1583739218301
97, -28328.38, -33641.83, -22660.51, -18365.67, -22444.68, -22927.30, -25611.46, -25087.57, 0.000, 0.000, 0.000, 10:33:38.301, 1583739218301
98, -28776.35, -33709.00, -22746.19, -18413.12, -22890.44, -22954.88, -25882.27, -25305.71, 0.000, 0.000, 0.000, 10:33:38.301, 1583739218301
99, -29342.25, -33742.73, -22911.92, -18622.33, -23683.66, -23199.81, -26172.51, -25698.85, 0.000, 0.000, 0.000, 10:33:38.307, 1583739218307
100, -29407.90, -33739.31, -22952.16, -18650.50, -23817.73, -23205.29, -26172.46, -25785.24, 0.000, 0.000, 0.000, 10:33:38.307, 1583739218307
101, -28743.49, -33664.09, -22786.42, -18496.31, -23034.16, -23066.89, -25800.44, -25390.84, 0.000, 0.000, 0.000, 10:33:38.308, 1583739218308
102, -28327.46, -33637.99, -22654.05, -18360.64, -22443.12, -22925.00, -25609.29, -25086.79, 0.000, -0.016, 0.972, 10:33:38.308, 1583739218308
103, -28769.85, -33704.38, -22737.74, -18407.26, -22879.54, -22950.19, -25873.95, -25300.10, 0.000, 0.000, 0.000, 10:33:38.308, 1583739218308
104, -29341.74, -33743.46, -22914.65, -18627.88, -23683.77, -23203.14, -26170.14, -25698.60, 0.000, 0.000, 0.000, 10:33:38.308, 1583739218308
105, -29412.68, -33732.74, -22956.85, -18654.07, -23824.95, -23205.18, -26173.15, -25785.84, 0.000, 0.000, 0.000, 10:33:38.308, 1583739218308
106, -28751.61, -33663.52, -22787.51, -18492.36, -23041.54, -23060.65, -25800.64, -25390.24, 0.000, 0.000, 0.000, 10:33:38.308, 1583739218308
107, -28329.96, -33646.46, -22654.43, -18357.46, -22446.76, -22920.24, -25610.00, -25084.89, 0.000, 0.000, 0.000, 10:33:38.309, 1583739218309
108, -28770.25, -33712.57, -22732.35, -18406.84, -22876.32, -22945.54, -25874.42, -25297.68, 0.000, 0.000, 0.000, 10:33:38.309, 1583739218309
109, -29339.70, -33745.37, -22902.58, -18622.98, -23677.29, -23195.70, -26167.48, -25695.30, 0.000, 0.000, 0.000, 10:33:38.309, 1583739218309
110, -29419.12, -33741.28, -22951.71, -18654.34, -23827.56, -23203.97, -26174.36, -25788.12, 0.000, 0.000, 0.000, 10:33:38.309, 1583739218309
111, -28764.84, -33672.90, -22794.04, -18499.29, -23049.48, -23065.52, -25810.41, -25398.53, 0.000, 0.000, 0.000, 10:33:38.309, 1583739218309
112, -28328.85, -33644.49, -22650.29, -18353.60, -22441.33, -22918.52, -25609.71, -25082.48, -0.002, -0.012, 0.972, 10:33:38.309, 1583739218309
113, -28765.44, -33706.83, -22731.25, -18400.25, -22866.04, -22942.19, -25871.83, -25292.36, 0.000, 0.000, 0.000, 10:33:38.309, 1583739218309
114, -29340.24, -33739.27, -22908.32, -18619.61, -23672.93, -23193.82, -26170.29, -25691.63, 0.000, 0.000, 0.000, 10:33:38.309, 1583739218309
115, -29420.26, -33735.64, -22953.32, -18649.78, -23826.98, -23201.42, -26175.81, -25785.17, 0.000, 0.000, 0.000, 10:33:38.310, 1583739218310
116, -28765.04, -33670.31, -22791.78, -18499.49, -23054.82, -23063.20, -25808.71, -25397.44, 0.000, 0.000, 0.000, 10:33:38.311, 1583739218311
117, -28331.01, -33645.88, -22658.79, -18363.70, -22450.34, -22923.01, -25609.89, -25083.95, 0.000, 0.000, 0.000, 10:33:38.311, 1583739218311
118, -28764.75, -33710.61, -22744.82, -18412.34, -22873.75, -22948.11, -25876.23, -25294.87, 0.000, 0.000, 0.000, 10:33:38.312, 1583739218312
119, -29340.80, -33747.69, -22914.36, -18630.20, -23674.54, -23200.42, -26171.79, -25695.16, 0.000, 0.000, 0.000, 10:33:38.312, 1583739218312
120, -29426.67, -33736.67, -22959.02, -18657.31, -23828.32, -23205.16, -26173.94, -25788.93, 0.000, 0.000, 0.000, 10:33:38.312, 1583739218312
121, -28769.31, -33661.61, -22799.76, -18504.47, -23058.21, -23065.10, -25805.63, -25401.33, 0.000, 0.000, 0.000, 10:33:38.312, 1583739218312
122, -28326.95, -33638.91, -22651.30, -18359.57, -22439.72, -22919.30, -25598.51, -25081.92, 0.000, 0.000, 0.000, 10:33:38.312, 1583739218312
123, -28757.96, -33709.09, -22725.26, -18401.21, -22847.93, -22937.67, -25856.07, -25285.10, 0.002, -0.016, 0.968, 10:33:38.312, 1583739218312
124, -29333.24, -33743.18, -22898.96, -18619.38, -23652.12, -23189.80, -26153.53, -25685.98, 0.000, 0.000, 0.000, 10:33:38.313, 1583739218313
125, -29421.80, -33733.70, -22946.46, -18651.64, -23819.96, -23200.33, -26164.10, -25787.70, 0.000, 0.000, 0.000, 10:33:38.313, 1583739218313
126, -28772.35, -33659.85, -22783.22, -18493.41, -23051.24, -23057.10, -25796.24, -25400.57, 0.000, 0.000, 0.000, 10:33:38.313, 1583739218313
127, -28328.69, -33640.18, -22640.91, -18346.06, -22432.39, -22911.41, -25589.77, -25079.30, 0.000, 0.000, 0.000, 10:33:38.313, 1583739218313
128, -28750.09, -33707.48, -22725.73, -18387.66, -22845.96, -22931.62, -25855.71, -25282.01, 0.000, 0.000, 0.000, 10:33:38.313, 1583739218313
129, -29328.79, -33746.39, -22903.12, -18613.88, -23657.00, -23187.90, -26159.50, -25684.66, 0.000, 0.000, 0.000, 10:33:38.314, 1583739218314
130, -29426.09, -33744.20, -22945.61, -18649.27, -23824.66, -23198.79, -26169.44, -25785.49, 0.000, 0.000, 0.000, 10:33:38.314, 1583739218314
131, -28777.96, -33667.09, -22782.22, -18490.39, -23060.21, -23052.94, -25802.96, -25397.32, 0.000, 0.000, 0.000, 10:33:38.314, 1583739218314
132, -28325.67, -33638.57, -22639.84, -18349.44, -22434.15, -22912.30, -25590.96, -25074.37, 0.000, 0.000, 0.000, 10:33:38.314, 1583739218314
133, -28746.24, -33700.73, -22718.09, -18392.40, -22835.75, -22931.79, -25849.99, -25274.14, 0.002, -0.014, 0.974, 10:33:38.314, 1583739218314
134, -29327.79, -33732.34, -22896.95, -18618.80, -23649.64, -23188.68, -26152.99, -25678.89, 0.000, 0.000, 0.000, 10:33:38.315, 1583739218315
135, -29424.15, -33731.53, -22943.60, -18654.45, -23827.70, -23202.88, -26166.98, -25785.44, 0.000, 0.000, 0.000, 10:33:38.315, 1583739218315
136, -28781.04, -33661.91, -22784.65, -18498.84, -23067.71, -23062.69, -25805.80, -25405.89, 0.000, 0.000, 0.000, 10:33:38.315, 1583739218315
137, -28325.85, -33639.46, -22650.25, -18359.01, -22443.21, -22922.50, -25598.24, -25083.69, 0.000, 0.000, 0.000, 10:33:38.315, 1583739218315
138, -28741.08, -33703.79, -22730.94, -18398.73, -22839.88, -22936.22, -25853.50, -25277.88, 0.000, 0.000, 0.000, 10:33:38.315, 1583739218315
139, -29322.38, -33741.25, -22900.72, -18616.01, -23644.43, -23188.12, -26152.57, -25678.06, 0.000, 0.000, 0.000, 10:33:38.316, 1583739218316
140, -29428.51, -33735.20, -22941.20, -18647.90, -23822.76, -23198.79, -26165.31, -25784.55, 0.000, 0.000, 0.000, 10:33:38.316, 1583739218316
141, -28783.59, -33665.93, -22781.63, -18496.87, -23066.31, -23059.24, -25801.94, -25405.51, 0.000, 0.000, 0.000, 10:33:38.317, 1583739218317
142, -28322.86, -33638.79, -22647.95, -18366.27, -22436.93, -22924.64, -25591.05, -25083.93, 0.000, 0.000, 0.000, 10:33:38.317, 1583739218317
143, -28738.06, -33704.30, -22729.00, -18404.47, -22828.28, -22935.71, -25847.85, -25276.78, 0.000, -0.018, 0.974, 10:33:38.318, 1583739218318
144, -29318.38, -33732.38, -22899.81, -18616.12, -23637.53, -23182.22, -26150.54, -25673.26, 0.000, 0.000, 0.000, 10:33:38.318, 1583739218318
145, -29432.04, -33729.14, -22950.59, -18660.22, -23832.68, -23203.50, -26175.52, -25787.97, 0.000, 0.000, 0.000, 10:33:38.318, 1583739218318
146, -28795.93, -33664.05, -22790.89, -18503.04, -23078.82, -23062.95, -25815.15, -25412.35, 0.000, 0.000, 0.000, 10:33:38.318, 1583739218318
147, -28325.43, -33634.66, -22648.82, -18351.74, -22435.16, -22917.00, -25596.68, -25080.51, 0.000, 0.000, 0.000, 10:33:38.318, 1583739218318
148, -28734.78, -33704.17, -22726.11, -18393.67, -22817.80, -22928.31, -25850.28, -25271.46, 0.000, 0.000, 0.000, 10:33:38.319, 1583739218319
149, -29317.80, -33743.69, -22894.02, -18614.24, -23627.45, -23178.96, -26152.52, -25672.68, 0.000, 0.000, 0.000, 10:33:38.319, 1583739218319
150, -29434.92, -33736.65, -22938.25, -18647.30, -23825.77, -23195.61, -26175.21, -25788.59, 0.000, 0.000, 0.000, 10:33:38.319, 1583739218319
151, -28802.81, -33664.34, -22784.18, -18497.54, -23080.25, -23058.30, -25818.99, -25417.11, 0.000, 0.000, 0.000, 10:33:38.319, 1583739218319
152, -28329.65, -33639.62, -22643.03, -18359.14, -22440.41, -22920.69, -25599.72, -25086.26, 0.000, 0.000, 0.000, 10:33:38.319, 1583739218319
153, -28729.90, -33702.85, -22713.98, -18388.29, -22815.34, -22925.87, -25845.43, -25269.52, 0.000, -0.020, 0.966, 10:33:38.320, 1583739218320
154, -29313.13, -33738.26, -22887.20, -18604.25, -23627.51, -23177.35, -26148.88, -25669.88, 0.000, 0.000, 0.000, 10:33:38.320, 1583739218320
155, -29439.06, -33739.09, -22950.30, -18657.27, -23843.25, -23209.02, -26182.38, -25796.28, 0.000, 0.000, 0.000, 10:33:38.320, 1583739218320
156, -28804.94, -33665.66, -22796.95, -18508.65, -23097.60, -23070.64, -25822.99, -25423.23, 0.000, 0.000, 0.000, 10:33:38.320, 1583739218320
157, -28328.35, -33636.07, -22657.78, -18369.83, -22449.11, -22932.46, -25600.48, -25089.14, 0.000, 0.000, 0.000, 10:33:38.320, 1583739218320
158, -28725.28, -33692.50, -22729.76, -18403.69, -22819.97, -22936.29, -25845.92, -25269.67, 0.000, 0.000, 0.000, 10:33:38.321, 1583739218321
159, -29307.56, -33735.80, -22902.24, -18615.38, -23632.10, -23182.76, -26149.24, -25669.03, 0.000, 0.000, 0.000, 10:33:38.321, 1583739218321
160, -29432.89, -33736.11, -22950.93, -18650.50, -23838.96, -23200.02, -26172.66, -25786.63, 0.000, 0.000, 0.000, 10:33:38.321, 1583739218321
161, -28801.59, -33661.12, -22790.49, -18497.14, -23093.08, -23056.09, -25811.28, -25411.23, 0.000, 0.000, 0.000, 10:33:38.321, 1583739218321
162, -28326.70, -33631.98, -22651.84, -18362.61, -22443.74, -22923.19, -25589.51, -25078.75, 0.000, 0.000, 0.000, 10:33:38.321, 1583739218321
163, -28717.05, -33690.67, -22717.26, -18390.77, -22800.81, -22923.75, -25831.40, -25254.65, 0.004, -0.016, 0.964, 10:33:38.322, 1583739218322
164, -29300.14, -33727.91, -22888.61, -18602.80, -23611.18, -23170.58, -26134.96, -25653.59, 0.000, 0.000, 0.000, 10:33:38.322, 1583739218322
165, -29434.77, -33730.82, -22942.81, -18648.37, -23830.83, -23197.58, -26168.75, -25782.65, 0.000, 0.000, 0.000, 10:33:38.322, 1583739218322
166, -28811.38, -33663.02, -22788.54, -18496.31, -23096.28, -23059.15, -25816.73, -25417.35, 0.000, 0.000, 0.000, 10:33:38.322, 1583739218322
167, -28321.63, -33628.24, -22645.00, -18355.50, -22439.90, -22921.65, -25590.51, -25079.95, 0.000, 0.000, 0.000, 10:33:38.322, 1583739218322
168, -28709.83, -33695.03, -22710.06, -18387.13, -22792.54, -22924.28, -25833.59, -25257.60, 0.000, 0.000, 0.000, 10:33:38.322, 1583739218322
169, -29300.83, -33737.86, -22883.69, -18603.76, -23606.08, -23175.38, -26142.44, -25662.51, 0.000, 0.000, 0.000, 10:33:38.323, 1583739218323
170, -29436.20, -33736.09, -22943.08, -18652.55, -23832.84, -23204.73, -26177.60, -25793.00, 0.000, 0.000, 0.000, 10:33:38.323, 1583739218323
171, -28819.44, -33674.18, -22795.72, -18509.19, -23105.36, -23071.83, -25827.87, -25433.04, 0.000, 0.000, 0.000, 10:33:38.323, 1583739218323
172, -28328.20, -33638.35, -22654.72, -18371.77, -22444.28, -22934.92, -25596.41, -25092.67, 0.000, 0.000, 0.000, 10:33:38.323, 1583739218323
173, -28712.47, -33700.89, -22717.89, -18395.80, -22792.83, -22932.20, -25834.68, -25264.53, 0.002, -0.018, 0.964, 10:33:38.323, 1583739218323
174, -29301.48, -33743.27, -22886.53, -18610.31, -23608.34, -23181.48, -26140.68, -25667.31, 0.000, 0.000, 0.000, 10:33:38.324, 1583739218324
175, -29443.82, -33740.07, -22948.07, -18667.93, -23848.17, -23217.31, -26178.79, -25805.96, 0.000, 0.000, 0.000, 10:33:38.324, 1583739218324
176, -28824.83, -33668.43, -22797.95, -18523.05, -23122.63, -23080.61, -25829.74, -25443.66, 0.000, 0.000, 0.000, 10:33:38.324, 1583739218324
177, -28322.79, -33634.17, -22647.19, -18373.20, -22446.04, -22935.88, -25590.04, -25092.65, 0.000, 0.000, 0.000, 10:33:38.324, 1583739218324
178, -28701.07, -33701.89, -22711.72, -18390.61, -22785.35, -22929.02, -25825.18, -25259.01, 0.000, 0.000, 0.000, 10:33:38.324, 1583739218324
179, -29297.37, -33738.10, -22888.79, -18609.37, -23604.54, -23182.20, -26137.48, -25664.74, 0.000, 0.000, 0.000, 10:33:38.324, 1583739218324
180, -29450.26, -33741.72, -22962.95, -18676.63, -23857.60, -23225.50, -26186.01, -25808.15, 0.000, 0.000, 0.000, 10:33:38.325, 1583739218325
181, -28834.40, -33679.70, -22811.90, -18525.15, -23138.50, -23085.53, -25836.98, -25445.61, 0.000, 0.000, 0.000, 10:33:38.325, 1583739218325
182, -28324.55, -33644.18, -22657.45, -18369.69, -22460.08, -22938.05, -25598.09, -25092.71, 0.000, 0.000, 0.000, 10:33:38.325, 1583739218325
183, -28697.13, -33707.70, -22722.45, -18391.10, -22793.50, -22932.40, -25834.95, -25257.45, -0.002, -0.018, 0.968, 10:33:38.325, 1583739218325
184, -29290.24, -33742.01, -22892.68, -18608.54, -23605.05, -23181.42, -26143.65, -25659.06, 0.000, 0.000, 0.000, 10:33:38.325, 1583739218325
185, -29442.46, -33738.97, -22956.83, -18667.84, -23855.66, -23218.52, -26189.70, -25800.13, 0.000, 0.000, 0.000, 10:33:38.325, 1583739218325
186, -28832.30, -33672.84, -22807.72, -18523.14, -23141.30, -23083.12, -25843.13, -25444.82, 0.000, 0.000, 0.000, 10:33:38.325, 1583739218325
187, -28324.24, -33639.02, -22656.20, -18376.64, -22461.13, -22942.21, -25600.28, -25096.45, 0.000, 0.000, 0.000, 10:33:38.327, 1583739218327
188, -28692.31, -33699.97, -22711.32, -18388.73, -22779.87, -22927.79, -25826.84, -25252.49, 0.000, 0.000, 0.000, 10:33:38.327, 1583739218327
189, -29280.22, -33735.13, -22877.10, -18595.18, -23590.16, -23168.63, -26130.37, -25646.95, 0.000, 0.000, 0.000, 10:33:38.327, 1583739218327
190, -29440.11, -33734.05, -22950.66, -18655.39, -23851.77, -23208.84, -26180.89, -25795.23, 0.000, 0.000, 0.000, 10:33:38.327, 1583739218327
191, -28834.84, -33666.98, -22799.94, -18506.17, -23135.73, -23068.94, -25831.37, -25438.07, 0.000, 0.000, 0.000, 10:33:38.327, 1583739218327
192, -28315.68, -33623.41, -22639.90, -18354.38, -22443.34, -22922.43, -25581.15, -25080.65, 0.000, 0.000, 0.000, 10:33:38.327, 1583739218327
193, -28684.55, -33691.88, -22704.12, -18374.79, -22764.74, -22914.25, -25814.83, -25242.03, 0.002, -0.020, 0.972, 10:33:38.327, 1583739218327
194, -29282.06, -33740.61, -22882.20, -18600.14, -23588.24, -23170.24, -26133.14, -25649.72, 0.000, 0.000, 0.000, 10:33:38.327, 1583739218327
195, -29452.91, -33745.34, -22964.16, -18675.80, -23864.71, -23224.60, -26195.30, -25809.09, 0.000, 0.000, 0.000, 10:33:38.327, 1583739218327
196, -28845.17, -33676.05, -22814.58, -18525.77, -23156.00, -23084.01, -25848.94, -25454.32, 0.000, 0.000, 0.000, 10:33:38.327, 1583739218327
197, -28320.08, -33633.54, -22651.19, -18372.33, -22458.45, -22936.71, -25596.72, -25095.29, 0.000, 0.000, 0.000, 10:33:38.327, 1583739218327
198, -28679.57, -33693.89, -22710.80, -18387.01, -22772.07, -22923.37, -25824.09, -25250.32, 0.000, 0.000, 0.000, 10:33:38.327, 1583739218327
199, -29274.21, -33737.81, -22887.87, -18601.72, -23590.63, -23171.47, -26135.49, -25653.21, 0.000, 0.000, 0.000, 10:33:38.327, 1583739218327
200, -29440.53, -33732.16, -22955.71, -18663.39, -23860.42, -23213.78, -26186.83, -25802.72, 0.000, 0.000, 0.000, 10:33:38.327, 1583739218327
201, -28842.64, -33664.39, -22801.21, -18515.98, -23154.55, -23072.32, -25839.98, -25447.48, 0.000, 0.000, 0.000, 10:33:38.327, 1583739218327
202, -28319.75, -33634.05, -22645.83, -18367.52, -22458.90, -22929.98, -25588.43, -25089.50, 0.000, 0.000, 0.000, 10:33:38.327, 1583739218327
203, -28677.06, -33697.31, -22705.01, -18380.76, -22763.93, -22914.72, -25812.26, -25242.90, 0.000, -0.020, 0.974, 10:33:38.327, 1583739218327
204, -29278.59, -33742.01, -22877.43, -18600.72, -23580.33, -23167.45, -26125.77, -25649.72, 0.000, 0.000, 0.000, 10:33:38.327, 1583739218327
205, -29453.72, -33745.12, -22947.69, -18670.39, -23855.97, -23217.72, -26183.37, -25807.57, 0.000, 0.000, 0.000, 10:33:38.328, 1583739218328
206, -28861.33, -33684.05, -22803.45, -18523.65, -23155.87, -23079.90, -25844.23, -25459.98, 0.000, 0.000, 0.000, 10:33:38.328, 1583739218328
207, -28331.04, -33650.98, -22649.45, -18371.84, -22454.58, -22937.38, -25589.97, -25097.25, 0.000, 0.000, 0.000, 10:33:38.328, 1583739218328
208, -28680.01, -33708.29, -22700.81, -18377.00, -22749.85, -22914.98, -25807.86, -25240.06, 0.000, 0.000, 0.000, 10:33:38.328, 1583739218328
209, -29276.52, -33743.38, -22871.67, -18588.63, -23566.31, -23161.35, -26119.04, -25641.05, 0.000, 0.000, 0.000, 10:33:38.328, 1583739218328
210, -29455.98, -33749.93, -22952.29, -18661.83, -23853.51, -23215.75, -26184.58, -25802.63, 0.000, 0.000, 0.000, 10:33:38.781, 1583739218781
211, -28868.44, -33686.63, -22806.36, -18520.54, -23159.00, -23080.61, -25848.50, -25460.25, 0.000, 0.000, 0.000, 10:33:38.782, 1583739218782
212, -28331.15, -33643.44, -22646.50, -18367.19, -22453.20, -22935.73, -25588.32, -25094.48, 0.000, 0.000, 0.000, 10:33:38.782, 1583739218782
213, -28675.72, -33701.27, -22705.82, -18380.76, -22747.01, -22918.16, -25810.43, -25238.72, 0.000, 0.000, 0.000, 10:33:38.782, 1583739218782
214, -29275.40, -33743.67, -22882.53, -18599.02, -23569.15, -23169.46, -26129.10, -25643.24, 0.000, -0.022, 0.972, 10:33:38.782, 1583739218782
215, -29455.60, -33745.34, -22954.59, -18669.23, -23860.80, -23221.25, -26191.26, -25805.24, 0.000, 0.000, 0.000, 10:33:38.782, 1583739218782
216, -28867.77, -33678.02, -22814.11, -18525.30, -23175.16, -23085.98, -25853.84, -25463.51, 0.000, 0.000, 0.000, 10:33:38.782, 1583739218782
217, -28325.45, -33634.50, -22662.23, -18376.13, -22469.96, -22947.39, -25597.98, -25099.35, 0.000, 0.000, 0.000, 10:33:38.782, 1583739218782
218, -28665.31, -33691.50, -22718.00, -18387.01, -22760.63, -22925.78, -25817.98, -25240.64, 0.000, 0.000, 0.000, 10:33:38.783, 1583739218783
219, -29268.04, -33735.71, -22883.29, -18599.20, -23574.03, -23168.28, -26128.94, -25640.65, 0.000, 0.000, 0.000, 10:33:38.787, 1583739218787
220, -29457.05, -33746.42, -22960.90, -18675.35, -23872.02, -23223.57, -26194.46, -25807.32, 0.000, 0.000, 0.000, 10:33:38.787, 1583739218787
221, -28871.39, -33680.30, -22826.79, -18539.83, -23193.67, -23091.52, -25861.91, -25469.63, 0.000, 0.000, 0.000, 10:33:38.787, 1583739218787
222, -28330.52, -33638.41, -22659.97, -18382.23, -22475.77, -22946.39, -25598.33, -25100.25, 0.000, 0.000, 0.000, 10:33:38.787, 1583739218787
223, -28662.78, -33695.63, -22696.54, -18370.38, -22741.96, -22911.28, -25804.69, -25228.05, 0.000, 0.000, 0.000, 10:33:38.788, 1583739218788
224, -29265.00, -33740.54, -22873.14, -18588.18, -23561.96, -23159.92, -26122.62, -25633.47, -0.006, -0.024, 0.968, 10:33:38.788, 1583739218788
225, -29456.54, -33737.14, -22953.92, -18667.93, -23867.88, -23219.66, -26191.46, -25805.07, 0.000, 0.000, 0.000, 10:33:38.788, 1583739218788
226, -28873.80, -33671.43, -22814.34, -18529.08, -23187.72, -23085.37, -25855.92, -25470.01, 0.000, 0.000, 0.000, 10:33:38.788, 1583739218788
227, -28324.46, -33629.29, -22654.32, -18378.14, -22468.69, -22944.80, -25588.95, -25101.63, 0.000, 0.000, 0.000, 10:33:38.788, 1583739218788
228, -28655.90, -33689.98, -22697.90, -18377.85, -22735.28, -22915.50, -25798.61, -25232.91, 0.000, 0.000, 0.000, 10:33:38.789, 1583739218789
229, -29257.34, -33731.22, -22874.78, -18595.53, -23550.38, -23161.75, -26115.76, -25635.71, 0.000, 0.000, 0.000, 10:33:38.789, 1583739218789
230, -29454.10, -33743.60, -22960.58, -18676.40, -23865.43, -23223.80, -26189.52, -25810.65, 0.000, 0.000, 0.000, 10:33:38.789, 1583739218789
231, -28876.46, -33680.77, -22817.42, -18538.45, -23192.97, -23089.84, -25860.28, -25478.57, 0.000, 0.000, 0.000, 10:33:38.789, 1583739218789
232, -28328.22, -33640.58, -22651.90, -18390.10, -22467.06, -22951.31, -25593.55, -25109.41, 0.000, 0.000, 0.000, 10:33:38.789, 1583739218789
233, -28655.58, -33698.58, -22701.30, -18387.55, -22732.21, -22920.08, -25802.99, -25237.29, 0.000, 0.000, 0.000, 10:33:38.789, 1583739218789
234, -29251.23, -33736.65, -22868.67, -18581.92, -23543.74, -23149.72, -26113.23, -25627.26, 0.002, -0.026, 0.972, 10:33:38.789, 1583739218789
235, -29450.19, -33740.54, -22948.33, -18656.49, -23858.65, -23207.17, -26185.04, -25798.63, 0.000, 0.000, 0.000, 10:33:38.789, 1583739218789
236, -28882.48, -33669.84, -22811.07, -18518.35, -23189.31, -23073.19, -25856.63, -25466.48, 0.000, 0.000, 0.000, 10:33:38.790, 1583739218790
237, -28326.77, -33624.60, -22649.94, -18368.60, -22462.81, -22932.44, -25587.07, -25090.59, 0.000, 0.000, 0.000, 10:33:38.790, 1583739218790
238, -28645.26, -33689.09, -22697.79, -18369.58, -22719.23, -22902.02, -25794.00, -25216.28, 0.000, 0.000, 0.000, 10:33:38.790, 1583739218790
239, -29249.65, -33733.88, -22875.33, -18584.78, -23540.90, -23149.21, -26114.44, -25621.13, 0.000, 0.000, 0.000, 10:33:38.790, 1583739218790
240, -29458.68, -33742.48, -22962.30, -18671.53, -23868.35, -23218.43, -26192.15, -25803.99, 0.000, 0.000, 0.000, 10:33:38.790, 1583739218790
241, -28894.23, -33676.84, -22823.32, -18537.35, -23206.97, -23086.47, -25864.03, -25477.59, 0.000, 0.000, 0.000, 10:33:38.790, 1583739218790
242, -28331.86, -33636.38, -22664.42, -18381.52, -22475.53, -22942.88, -25590.44, -25100.43, 0.000, 0.000, 0.000, 10:33:38.790, 1583739218790
243, -28647.13, -33698.81, -22704.99, -18372.06, -22722.04, -22906.09, -25793.42, -25220.99, 0.000, 0.000, 0.000, 10:33:38.790, 1583739218790
244, -29251.64, -33741.88, -22870.73, -18585.86, -23535.29, -23150.66, -26113.32, -25624.71, 0.004, -0.018, 0.972, 10:33:38.791, 1583739218791
245, -29464.69, -33741.61, -22950.57, -18661.38, -23862.54, -23211.28, -26192.49, -25803.08, 0.000, 0.000, 0.000, 10:33:38.791, 1583739218791
246, -28900.71, -33669.71, -22814.18, -18517.19, -23203.21, -23072.30, -25867.00, -25473.12, 0.000, 0.000, 0.000, 10:33:38.791, 1583739218791
247, -28332.94, -33627.21, -22651.03, -18365.94, -22468.49, -22932.87, -25594.71, -25094.97, 0.000, 0.000, 0.000, 10:33:38.791, 1583739218791
248, -28640.41, -33684.82, -22697.41, -18365.11, -22712.08, -22899.72, -25795.34, -25213.91, 0.000, 0.000, 0.000, 10:33:38.791, 1583739218791
249, -29248.64, -33730.01, -22877.10, -18584.63, -23536.99, -23147.60, -26119.26, -25621.31, 0.000, 0.000, 0.000, 10:33:38.791, 1583739218791
250, -29461.86, -33733.39, -22965.61, -18674.81, -23879.42, -23219.84, -26203.82, -25809.47, 0.000, 0.000, 0.000, 10:33:38.791, 1583739218791
251, -28902.55, -33671.00, -22833.45, -18544.79, -23227.69, -23091.45, -25882.29, -25488.74, 0.000, 0.000, 0.000, 10:33:38.791, 1583739218791
252, -28331.66, -33628.94, -22666.97, -18396.40, -22487.58, -22955.17, -25603.43, -25111.02, 0.000, 0.000, 0.000, 10:33:38.791, 1583739218791
253, -28634.35, -33680.66, -22703.13, -18378.56, -22716.81, -22911.16, -25797.89, -25221.69, 0.000, 0.000, 0.000, 10:33:38.792, 1583739218792
254, -29235.95, -33726.34, -22867.13, -18578.75, -23526.78, -23144.43, -26111.22, -25615.66, 0.006, -0.018, 0.974, 10:33:38.792, 1583739218792
255, -29454.66, -33733.27, -22956.56, -18671.26, -23872.80, -23217.54, -26196.78, -25805.67, 0.000, 0.000, 0.000, 10:33:38.792, 1583739218792
0, -28900.42, -33669.01, -22821.91, -18530.80, -23223.06, -23080.95, -25877.55, -25484.23, 0.000, 0.000, 0.000, 10:33:38.792, 1583739218792
1, -28330.48, -33624.36, -22657.27, -18376.58, -22476.80, -22939.08, -25595.56, -25099.82, 0.000, 0.000, 0.000, 10:33:38.792, 1583739218792
2, -28634.51, -33679.41, -22697.99, -18377.25, -22705.62, -22904.53, -25793.29, -25212.74, 0.000, 0.000, 0.000, 10:33:38.792, 1583739218792
3, -29237.56, -33718.81, -22864.40, -18577.76, -23519.04, -23139.46, -26111.64, -25609.73, 0.000, 0.000, 0.000, 10:33:38.792, 1583739218792
4, -29458.35, -33725.34, -22951.24, -18659.95, -23865.78, -23208.15, -26195.91, -25798.20, 0.000, 0.000, 0.000, 10:33:38.792, 1583739218792
5, -28906.01, -33676.05, -22826.29, -18535.09, -23226.30, -23083.03, -25880.14, -25486.22, 0.000, 0.000, 0.000, 10:33:38.793, 1583739218793
6, -28324.82, -33624.93, -22664.78, -18385.58, -22479.60, -22944.89, -25597.15, -25101.59, 0.000, 0.000, 0.000, 10:33:38.793, 1583739218793
7, -28618.52, -33678.09, -22705.01, -18377.36, -22700.86, -22904.86, -25790.92, -25209.44, 0.000, 0.000, 0.000, 10:33:38.794, 1583739218794
8, -29221.98, -33721.61, -22875.42, -18581.92, -23515.00, -23140.22, -26110.32, -25605.73, 0.006, -0.022, 0.974, 10:33:38.794, 1583739218794
9, -29449.29, -33723.66, -22960.29, -18662.95, -23870.08, -23210.03, -26197.32, -25797.29, 0.000, 0.000, 0.000, 10:33:38.794, 1583739218794
10, -28906.53, -33663.47, -22826.32, -18527.72, -23232.29, -23077.10, -25878.76, -25485.10, 0.000, 0.000, 0.000, 10:33:38.795, 1583739218795
11, -28324.60, -33621.02, -22660.80, -18378.81, -22479.30, -22938.99, -25593.06, -25100.20, 0.000, 0.000, 0.000, 10:33:38.795, 1583739218795
12, -28610.39, -33673.77, -22692.54, -18367.81, -22689.39, -22896.10, -25783.32, -25203.13, 0.000, 0.000, 0.000, 10:33:38.795, 1583739218795
13, -29218.47, -33715.35, -22866.01, -18577.56, -23506.97, -23136.87, -26108.60, -25605.98, 0.000, 0.000, 0.000, 10:33:38.795, 1583739218795
14, -29455.73, -33726.90, -22956.22, -18667.30, -23872.15, -23212.73, -26202.32, -25803.48, 0.000, 0.000, 0.000, 10:33:38.795, 1583739218795
15, -28914.39, -33664.61, -22822.05, -18533.71, -23237.54, -23078.78, -25882.60, -25489.95, 0.000, 0.000, 0.000, 10:33:38.795, 1583739218795
16, -28327.93, -33619.17, -22658.01, -18387.30, -22483.73, -22942.32, -25595.00, -25103.60, 0.000, 0.000, 0.000, 10:33:38.795, 1583739218795
17, -28611.73, -33676.03, -22699.85, -18375.10, -22694.37, -22900.39, -25785.71, -25207.00, 0.000, 0.000, 0.000, 10:33:38.795, 1583739218795
18, -29222.69, -33722.99, -22871.89, -18575.17, -23511.75, -23135.84, -26110.23, -25606.76, 0.002, -0.018, 0.974, 10:33:38.796, 1583739218796
19, -29461.86, -33735.35, -22965.37, -18670.43, -23879.42, -23216.91, -26204.45, -25808.75, 0.000, 0.000, 0.000, 10:33:38.796, 1583739218796
20, -28923.25, -33666.06, -22831.84, -18530.02, -23249.75, -23079.31, -25886.40, -25495.83, 0.000, 0.000, 0.000, 10:33:38.796, 1583739218796
21, -28330.77, -33614.36, -22654.19, -18372.82, -22484.54, -22936.26, -25590.69, -25101.25, 0.000, 0.000, 0.000, 10:33:38.796, 1583739218796
22, -28607.13, -33673.48, -22687.89, -18361.26, -22684.36, -22893.15, -25775.47, -25200.79, 0.000, 0.000, 0.000, 10:33:38.796, 1583739218796
23, -29217.02, -33722.68, -22868.99, -18580.92, -23506.48, -23139.17, -26104.18, -25606.34, 0.000, 0.000, 0.000, 10:33:38.796, 1583739218796
24, -29463.09, -33733.23, -22963.91, -18676.83, -23883.71, -23222.81, -26205.23, -25810.88, 0.000, 0.000, 0.000, 10:33:38.796, 1583739218796
25, -28928.52, -33671.67, -22826.63, -18527.61, -23253.30, -23081.73, -25889.40, -25497.10, 0.000, 0.000, 0.000, 10:33:38.796, 1583739218796
26, -28328.40, -33618.23, -22655.93, -18371.86, -22487.46, -22938.46, -25593.69, -25099.76, 0.000, 0.000, 0.000, 10:33:38.797, 1583739218797
27, -28604.44, -33675.74, -22696.68, -18369.06, -22684.72, -22899.05, -25781.66, -25198.66, 0.000, 0.000, 0.000, 10:33:38.797, 1583739218797
28, -29219.63, -33719.73, -22873.86, -18581.03, -23504.51, -23140.40, -26110.73, -25602.63, 0.002, -0.016, 0.972, 10:33:38.797, 1583739218797
29, -29462.26, -33726.17, -22955.91, -18667.48, -23877.92, -23215.10, -26205.41, -25802.50, 0.000, 0.000, 0.000, 10:33:38.797, 1583739218797
30, -28929.84, -33660.18, -22823.79, -18533.53, -23256.90, -23081.21, -25893.18, -25498.51, 0.000, 0.000, 0.000, 10:33:38.797, 1583739218797
31, -28329.40, -33601.87, -22656.44, -18378.77, -22488.85, -22940.91, -25596.72, -25104.29, 0.000, 0.000, 0.000, 10:33:38.797, 1583739218797
32, -28599.66, -33665.95, -22695.69, -18371.39, -22681.97, -22900.46, -25784.05, -25202.62, 0.000, 0.000, 0.000, 10:33:38.797, 1583739218797
33, -29208.28, -33716.76, -22875.87, -18585.56, -23500.94, -23142.04, -26114.19, -25606.20, 0.000, 0.000, 0.000, 10:33:38.797, 1583739218797
34, -29458.19, -33720.27, -22965.77, -18674.01, -23885.12, -23222.21, -26211.02, -25810.70, 0.000, 0.000, 0.000, 10:33:38.798, 1583739218798
35, -28936.88, -33660.39, -22827.10, -18526.55, -23264.28, -23080.79, -25895.26, -25504.30, 0.000, 0.000, 0.000, 10:33:38.798, 1583739218798
36, -28330.39, -33614.77, -22656.87, -18369.06, -22489.70, -22938.03, -25594.24, -25105.05, 0.000, 0.000, 0.000, 10:33:38.798, 1583739218798
37, -28588.19, -33668.27, -22697.66, -18363.41, -22674.99, -22895.16, -25775.45, -25198.55, 0.000, 0.000, 0.000, 10:33:38.798, 1583739218798
38, -29200.92, -33714.77, -22877.43, -18579.35, -23495.46, -23139.02, -26107.31, -25604.91, 0.000, -0.020, 0.968, 10:33:38.798, 1583739218798
39, -29460.98, -33724.54, -22980.12, -18685.41, -23895.11, -23232.22, -26217.01, -25821.16, 0.000, 0.000, 0.000, 10:33:38.798, 1583739218798
40, -28936.16, -33658.17, -22837.83, -18539.59, -23274.98, -23087.65, -25899.35, -25512.08, 0.000, 0.000, 0.000, 10:33:38.798, 1583739218798
41, -28329.25, -33607.07, -22658.30, -18377.65, -22492.02, -22941.38, -25592.61, -25107.40, 0.000, 0.000, 0.000, 10:33:38.798, 1583739218798
42, -28583.68, -33657.79, -22683.82, -18357.49, -22660.60, -22889.17, -25765.91, -25188.43, 0.000, 0.000, 0.000, 10:33:38.798, 1583739218798
43, -29196.05, -33710.59, -22851.17, -18561.51, -23470.69, -23122.37, -26088.29, -25586.85, 0.000, 0.000, 0.000, 10:33:38.799, 1583739218799
44, -29457.10, -33722.77, -22948.76, -18663.33, -23869.90, -23213.34, -26195.39, -25801.65, 0.000, 0.000, 0.000, 10:33:38.799, 1583739218799
45, -28944.30, -33660.54, -22831.50, -18537.66, -23274.02, -23086.11, -25894.67, -25509.35, 0.000, 0.000, 0.000, 10:33:38.799, 1583739218799
46, -28329.70, -33608.93, -22668.54, -18388.27, -22501.37, -22949.45, -25595.18, -25109.10, 0.000, 0.000, 0.000, 10:33:38.799, 1583739218799
47, -28578.98, -33664.16, -22702.55, -18378.61, -22671.26, -22901.96, -25772.03, -25192.99, 0.000, 0.000, 0.000, 10:33:38.799, 1583739218799
48, -29187.29, -33705.25, -22868.45, -18578.57, -23478.18, -23131.35, -26097.49, -25588.72, 0.000, 0.000, 0.000, 10:33:38.799, 1583739218799
49, -29448.00, -33707.48, -22952.38, -18658.59, -23870.16, -23209.87, -26198.17, -25795.50, 0.002, -0.020, 0.974, 10:33:38.799, 1583739218799
50, -28943.29, -33650.46, -22829.94, -18527.34, -23273.98, -23078.78, -25896.24, -25503.54, 0.000, 0.000, 0.000, 10:33:38.799, 1583739218799
51, -28334.81, -33605.87, -22660.40, -18372.57, -22494.50, -22939.37, -25594.02, -25102.39, 0.000, 0.000, 0.000, 10:33:38.800, 1583739218800
52, -28572.17, -33658.55, -22686.73, -18353.71, -22651.01, -22885.08, -25760.76, -25176.76, 0.000, 0.000, 0.000, 10:33:38.800, 1583739218800
53, -29184.65, -33700.48, -22854.37, -18561.22, -23464.37, -23119.50, -26089.76, -25577.05, 0.000, 0.000, 0.000, 10:33:38.800, 1583739218800
54, -29453.92, -33715.30, -22955.89, -18669.45, -23877.76, -23215.50, -26205.81, -25799.92, 0.000, 0.000, 0.000, 10:33:38.800, 1583739218800
55, -28953.40, -33660.34, -22837.92, -18537.51, -23287.90, -23084.48, -25906.07, -25510.80, 0.000, 0.000, 0.000, 10:33:38.800, 1583739218800
56, -28334.05, -33601.73, -22660.80, -18376.66, -22499.53, -22941.76, -25594.22, -25103.80, 0.000, 0.000, 0.000, 10:33:38.800, 1583739218800
57, -28574.34, -33656.36, -22681.43, -18355.95, -22645.71, -22886.84, -25760.03, -25177.81, 0.000, 0.000, 0.000, 10:33:38.800, 1583739218800
58, -29190.73, -33705.18, -22856.27, -18563.48, -23461.60, -23122.57, -26093.43, -25581.19, 0.000, 0.000, 0.000, 10:33:38.800, 1583739218800
59, -29456.89, -33711.79, -22953.77, -18666.46, -23876.00, -23216.53, -26206.95, -25802.27, -0.002, -0.020, 0.970, 10:33:38.801, 1583739218801
60, -28960.13, -33662.13, -22834.72, -18540.79, -23292.04, -23088.55, -25911.06, -25518.14, 0.000, 0.000, 0.000, 10:33:38.801, 1583739218801
61, -28335.33, -33608.73, -22656.53, -18374.88, -22496.31, -22940.33, -25593.64, -25104.83, 0.000, 0.000, 0.000, 10:33:38.801, 1583739218801
62, -28564.39, -33660.63, -22676.56, -18344.88, -22635.77, -22877.46, -25751.55, -25169.85, 0.000, 0.000, 0.000, 10:33:38.801, 1583739218801
63, -29180.74, -33706.74, -22851.42, -18556.46, -23450.04, -23114.36, -26083.84, -25572.65, 0.000, 0.000, 0.000, 10:33:38.801, 1583739218801
64, -29457.32, -33719.53, -22960.96, -18671.17, -23876.24, -23217.49, -26205.12, -25798.94, 0.000, 0.000, 0.000, 10:33:38.801, 1583739218801
65, -28961.54, -33662.20, -22846.10, -18546.38, -23301.34, -23089.84, -25911.64, -25515.68, 0.000, 0.000, 0.000, 10:33:38.801, 1583739218801
66, -28338.72, -33604.98, -22664.71, -18382.68, -22501.77, -22945.90, -25597.69, -25105.52, 0.000, 0.000, 0.000, 10:33:38.801, 1583739218801
67, -28566.42, -33653.90, -22684.09, -18350.27, -22636.33, -22883.63, -25758.48, -25171.15, 0.000, 0.000, 0.000, 10:33:38.802, 1583739218802
68, -29176.42, -33701.56, -22853.92, -18554.90, -23447.96, -23115.41, -26085.96, -25569.19, 0.000, 0.000, 0.000, 10:33:38.802, 1583739218802
69, -29457.01, -33711.75, -22961.28, -18670.86, -23881.43, -23221.05, -26207.53, -25800.89, 0.002, -0.022, 0.968, 10:33:38.802, 1583739218802
70, -28967.44, -33659.07, -22839.30, -18538.74, -23307.77, -23088.55, -25914.07, -25519.41, 0.000, 0.000, 0.000, 10:33:38.802, 1583739218802
71, -28336.24, -33606.32, -22659.17, -18369.65, -22507.31, -22939.86, -25594.00, -25103.15, 0.000, 0.000, 0.000, 10:33:38.802, 1583739218802
72, -28556.21, -33654.84, -22671.22, -18341.57, -22627.12, -22875.47, -25743.15, -25162.86, 0.000, 0.000, 0.000, 10:33:38.802, 1583739218802
73, -29174.41, -33701.87, -22846.52, -18547.01, -23437.23, -23107.21, -26075.68, -25563.02, 0.000, 0.000, 0.000, 10:33:38.802, 1583739218802
74, -29457.79, -33713.31, -22957.05, -18661.16, -23875.15, -23211.41, -26199.39, -25794.67, 0.000, 0.000, 0.000, 10:33:39.261, 1583739219261
75, -28974.01, -33661.21, -22842.79, -18540.53, -23309.98, -23085.80, -25912.53, -25521.89, 0.000, 0.000, 0.000, 10:33:39.261, 1583739219261
76, -28341.90, -33609.11, -22670.84, -18389.36, -22515.58, -22950.53, -25603.07, -25117.68, 0.000, 0.000, 0.000, 10:33:39.262, 1583739219262
77, -28560.68, -33658.24, -22685.95, -18363.59, -22636.19, -22889.15, -25757.84, -25177.72, 0.000, 0.000, 0.000, 10:33:39.262, 1583739219262
