%OpenBCI Raw EEG Data
%Number of channels = 8
%Sample Rate = 250.0 Hz
%First Column = SampleIndex
%Last Column = Timestamp 
%Other Columns = EEG data in microvolts followed by Accel Data (in G) interleaved with Aux Data
0, 0.00, 0.00, 0.00, 0.00, 0.00, 0.00, 0.00, 0.00, 0.002, -0.028, 0.966, 10:48:31.551, 1583740111551
1, -24222.58, -29759.56, -18966.84, -15461.59, -17248.13, -20650.15, -22620.57, -20705.40, 0.000, 0.000, 0.000, 10:48:32.035, 1583740112035
2, -24752.23, -29835.98, -19066.87, -15540.47, -17769.64, -20689.22, -22895.14, -20935.02, 0.000, 0.000, 0.000, 10:48:32.035, 1583740112035
3, -25319.96, -29887.72, -19239.24, -15707.17, -18524.79, -20756.43, -23170.00, -21250.00, 0.000, 0.000, 0.000, 10:48:32.035, 1583740112035
4, -25227.99, -29864.48, -19240.25, -15698.39, -18444.26, -20748.39, -23099.59, -21229.46, 0.000, 0.000, 0.000, 10:48:32.035, 1583740112035
5, -24509.07, -29772.19, -19077.86, -15572.82, -17671.78, -20698.63, -22745.78, -20890.95, 0.000, 0.000, 0.000, 10:48:32.036, 1583740112036
6, -24225.13, -29753.79, -18979.49, -15479.45, -17259.01, -20664.75, -22631.61, -20719.15, 0.000, 0.000, 0.000, 10:48:32.036, 1583740112036
7, -24744.81, -29822.79, -19075.74, -15549.55, -17774.89, -20698.86, -22902.98, -20941.75, 0.000, 0.000, 0.000, 10:48:32.036, 1583740112036
8, -25317.13, -29880.19, -19248.90, -15722.13, -18530.98, -20768.86, -23174.20, -21256.26, 0.002, -0.026, 0.968, 10:48:32.036, 1583740112036
9, -25229.89, -29866.56, -19246.35, -15706.26, -18452.01, -20754.18, -23101.22, -21232.46, 0.000, 0.000, 0.000, 10:48:32.036, 1583740112036
10, -24512.04, -29775.25, -19076.30, -15563.05, -17673.12, -20691.77, -22742.85, -20887.08, 0.000, 0.000, 0.000, 10:48:32.037, 1583740112037
11, -24224.51, -29744.90, -18974.04, -15461.53, -17251.90, -20652.61, -22623.47, -20707.24, 0.000, 0.000, 0.000, 10:48:32.037, 1583740112037
12, -24742.46, -29821.27, -19079.20, -15554.27, -17770.46, -20703.62, -22900.01, -20940.99, 0.000, 0.000, 0.000, 10:48:32.041, 1583740112041
13, -25312.12, -29885.98, -19256.12, -15736.70, -18536.46, -20784.91, -23179.70, -21267.55, 0.000, 0.000, 0.000, 10:48:32.041, 1583740112041
14, -25228.50, -29867.70, -19256.16, -15719.87, -18467.37, -20772.26, -23115.23, -21248.78, 0.000, 0.000, 0.000, 10:48:32.041, 1583740112041
15, -24511.19, -29773.10, -19087.99, -15580.10, -17689.88, -20710.99, -22757.79, -20903.55, 0.000, 0.000, 0.000, 10:48:32.041, 1583740112041
16, -24223.39, -29754.26, -18981.97, -15478.29, -17264.02, -20668.77, -22632.35, -20721.12, 0.000, 0.000, 0.000, 10:48:32.041, 1583740112041
17, -24739.71, -29828.51, -19080.66, -15550.94, -17775.00, -20705.85, -22902.83, -20943.47, 0.000, 0.000, 0.000, 10:48:32.042, 1583740112042
18, -25307.27, -29882.29, -19251.09, -15721.41, -18533.60, -20775.57, -23175.99, -21259.73, 0.000, -0.022, 0.968, 10:48:32.042, 1583740112042
19, -25229.13, -29861.91, -19252.63, -15711.85, -18466.99, -20764.90, -23111.61, -21243.59, 0.000, 0.000, 0.000, 10:48:32.042, 1583740112042
20, -24511.68, -29768.48, -19082.47, -15573.62, -17686.31, -20704.62, -22753.05, -20899.75, 0.000, 0.000, 0.000, 10:48:32.042, 1583740112042
21, -24217.15, -29749.61, -18982.08, -15480.15, -17258.88, -20669.55, -22630.18, -20721.56, 0.000, 0.000, 0.000, 10:48:32.042, 1583740112042
22, -24730.35, -29824.91, -19076.28, -15556.01, -17764.14, -20707.64, -22896.25, -20942.27, 0.000, 0.000, 0.000, 10:48:32.042, 1583740112042
23, -25299.36, -29878.18, -19245.66, -15722.55, -18521.26, -20772.97, -23164.83, -21254.12, 0.000, 0.000, 0.000, 10:48:32.043, 1583740112043
24, -25221.17, -29852.14, -19241.39, -15705.92, -18455.05, -20752.45, -23094.47, -21232.46, 0.000, 0.000, 0.000, 10:48:32.043, 1583740112043
25, -24511.73, -29766.85, -19074.58, -15563.85, -17678.91, -20688.26, -22739.50, -20888.24, 0.000, 0.000, 0.000, 10:48:32.043, 1583740112043
26, -24217.06, -29746.24, -18964.81, -15455.85, -17242.16, -20644.88, -22613.59, -20701.22, 0.000, 0.000, 0.000, 10:48:32.043, 1583740112043
27, -24726.59, -29814.23, -19057.79, -15530.33, -17744.47, -20684.15, -22882.53, -20920.54, 0.000, 0.000, 0.000, 10:48:32.043, 1583740112043
28, -25297.19, -29870.51, -19230.03, -15706.93, -18506.91, -20756.63, -23157.95, -21240.08, 0.002, -0.018, 0.970, 10:48:32.043, 1583740112043
29, -25229.75, -29857.59, -19234.68, -15699.75, -18452.10, -20748.39, -23096.91, -21231.85, 0.000, 0.000, 0.000, 10:48:32.044, 1583740112044
30, -24518.59, -29762.93, -19073.39, -15565.62, -17680.97, -20693.27, -22745.85, -20895.17, 0.000, 0.000, 0.000, 10:48:32.044, 1583740112044
31, -24214.74, -29751.94, -18972.03, -15472.06, -17248.71, -20659.13, -22625.96, -20715.91, 0.000, 0.000, 0.000, 10:48:32.044, 1583740112044
32, -24727.78, -29831.02, -19073.99, -15560.26, -17755.17, -20707.30, -22898.36, -20942.22, 0.000, 0.000, 0.000, 10:48:32.044, 1583740112044
33, -25307.67, -29884.42, -19253.28, -15736.68, -18525.62, -20781.58, -23177.26, -21264.71, 0.000, 0.000, 0.000, 10:48:32.044, 1583740112044
34, -25237.96, -29859.11, -19249.63, -15710.01, -18467.59, -20759.85, -23111.23, -21245.24, 0.000, 0.000, 0.000, 10:48:32.044, 1583740112044
35, -24528.36, -29766.82, -19086.42, -15578.96, -17698.02, -20705.52, -22758.14, -20907.35, 0.000, 0.000, 0.000, 10:48:32.044, 1583740112044
36, -24222.25, -29735.11, -18978.06, -15474.74, -17255.46, -20662.98, -22628.03, -20718.44, 0.000, 0.000, 0.000, 10:48:32.045, 1583740112045
37, -24723.96, -29803.57, -19074.60, -15549.06, -17753.56, -20701.47, -22892.99, -20935.00, 0.000, 0.000, 0.000, 10:48:32.045, 1583740112045
38, -25300.34, -29872.39, -19245.39, -15715.22, -18523.16, -20770.71, -23171.31, -21253.42, 0.002, -0.018, 0.968, 10:48:32.045, 1583740112045
39, -25234.29, -29851.18, -19244.63, -15697.83, -18470.95, -20754.49, -23110.18, -21238.11, 0.000, 0.000, 0.000, 10:48:32.045, 1583740112045
40, -24522.52, -29757.48, -19080.59, -15564.73, -17697.31, -20697.94, -22755.86, -20898.37, 0.000, 0.000, 0.000, 10:48:32.045, 1583740112045
41, -24216.19, -29739.24, -18979.94, -15474.47, -17261.18, -20666.67, -22631.59, -20719.48, 0.000, 0.000, 0.000, 10:48:32.045, 1583740112045
42, -24721.90, -29817.88, -19078.82, -15553.42, -17760.47, -20710.37, -22899.76, -20941.24, 0.000, 0.000, 0.000, 10:48:32.045, 1583740112045
43, -25291.49, -29868.34, -19252.23, -15716.32, -18525.39, -20775.07, -23172.28, -21254.14, 0.000, 0.000, 0.000, 10:48:32.046, 1583740112046
44, -25228.70, -29841.01, -19251.87, -15703.96, -18476.38, -20759.32, -23111.26, -21241.35, 0.000, 0.000, 0.000, 10:48:32.046, 1583740112046
45, -24519.30, -29751.87, -19078.24, -15565.26, -17696.35, -20696.82, -22753.00, -20898.25, 0.000, 0.000, 0.000, 10:48:32.046, 1583740112046
46, -24206.07, -29735.80, -18971.76, -15465.93, -17248.42, -20658.80, -22622.47, -20709.58, 0.000, 0.000, 0.000, 10:48:32.046, 1583740112046
47, -24699.95, -29795.50, -19063.78, -15533.37, -17737.09, -20691.50, -22882.51, -20919.80, 0.000, 0.000, 0.000, 10:48:32.046, 1583740112046
48, -25275.49, -29853.46, -19236.67, -15706.84, -18508.23, -20761.46, -23158.28, -21237.69, 0.004, -0.018, 0.968, 10:48:32.046, 1583740112046
49, -25227.77, -29851.00, -19239.98, -15702.90, -18468.26, -20752.74, -23101.35, -21233.73, 0.000, 0.000, 0.000, 10:48:32.046, 1583740112046
50, -24525.43, -29766.69, -19077.93, -15573.04, -17700.30, -20699.14, -22749.65, -20900.58, 0.000, 0.000, 0.000, 10:48:32.046, 1583740112046
51, -24213.35, -29745.37, -18974.04, -15477.15, -17252.01, -20663.38, -22618.67, -20717.09, 0.000, 0.000, 0.000, 10:48:32.047, 1583740112047
52, -24711.64, -29818.92, -19067.49, -15548.81, -17739.37, -20700.31, -22882.29, -20931.18, 0.000, 0.000, 0.000, 10:48:32.047, 1583740112047
53, -25288.85, -29875.92, -19243.53, -15724.54, -18512.52, -20772.32, -23163.47, -21251.23, 0.000, 0.000, 0.000, 10:48:32.047, 1583740112047
54, -25237.06, -29853.48, -19248.96, -15718.33, -18478.63, -20761.73, -23109.33, -21245.42, 0.000, 0.000, 0.000, 10:48:32.047, 1583740112047
55, -24530.12, -29761.57, -19082.38, -15577.85, -17707.65, -20700.89, -22755.62, -20904.83, 0.000, 0.000, 0.000, 10:48:32.047, 1583740112047
56, -24210.09, -29742.64, -18972.54, -15469.19, -17249.64, -20658.06, -22620.17, -20710.57, 0.000, 0.000, 0.000, 10:48:32.047, 1583740112047
57, -24708.58, -29818.46, -19065.59, -15534.37, -17732.69, -20693.18, -22885.41, -20922.21, 0.000, 0.000, 0.000, 10:48:32.048, 1583740112048
58, -25285.05, -29872.37, -19242.19, -15707.82, -18509.81, -20762.58, -23163.43, -21240.86, 0.002, -0.020, 0.968, 10:48:32.048, 1583740112048
59, -25241.18, -29855.71, -19253.46, -15702.82, -18482.50, -20751.81, -23112.51, -21238.47, 0.000, 0.000, 0.000, 10:48:32.048, 1583740112048
60, -24538.77, -29770.87, -19086.91, -15568.93, -17713.56, -20694.63, -22760.24, -20903.39, 0.000, 0.000, 0.000, 10:48:32.048, 1583740112048
61, -24213.53, -29745.77, -18969.01, -15465.98, -17250.70, -20654.60, -22620.50, -20710.95, 0.000, 0.000, 0.000, 10:48:32.048, 1583740112048
62, -24702.05, -29808.78, -19059.60, -15531.47, -17728.60, -20689.45, -22880.41, -20918.95, 0.000, 0.000, 0.000, 10:48:32.048, 1583740112048
63, -25282.59, -29861.06, -19237.74, -15703.96, -18504.90, -20759.88, -23161.17, -21240.13, 0.000, 0.000, 0.000, 10:48:32.048, 1583740112048
64, -25245.82, -29849.35, -19245.05, -15694.99, -18478.43, -20745.93, -23110.07, -21237.76, 0.000, 0.000, 0.000, 10:48:32.049, 1583740112049
65, -24541.57, -29764.45, -19082.27, -15565.04, -17712.53, -20691.41, -22757.96, -20903.46, 0.000, 0.000, 0.000, 10:48:32.049, 1583740112049
66, -24212.95, -29737.74, -18974.78, -15468.99, -17254.47, -20657.95, -22621.78, -20714.34, 0.000, 0.000, 0.000, 10:48:32.049, 1583740112049
67, -24703.24, -29810.74, -19066.28, -15537.68, -17728.44, -20694.81, -22881.68, -20923.56, 0.000, 0.000, 0.000, 10:48:32.049, 1583740112049
68, -25283.15, -29869.73, -19239.55, -15708.02, -18504.49, -20764.10, -23161.46, -21243.34, 0.002, -0.016, 0.968, 10:48:32.049, 1583740112049
69, -25247.23, -29856.32, -19249.84, -15709.41, -18487.44, -20758.20, -23115.53, -21246.54, 0.000, 0.000, 0.000, 10:48:32.049, 1583740112049
70, -24543.82, -29767.09, -19085.62, -15574.85, -17721.07, -20700.93, -22762.17, -20909.10, 0.000, 0.000, 0.000, 10:48:32.049, 1583740112049
71, -24216.21, -29746.75, -18972.29, -15462.80, -17252.73, -20657.24, -22619.83, -20710.50, 0.000, 0.000, 0.000, 10:48:32.049, 1583740112049
72, -24697.36, -29813.02, -19054.75, -15522.15, -17717.65, -20687.72, -22872.67, -20911.38, 0.000, 0.000, 0.000, 10:48:32.049, 1583740112049
73, -25279.53, -29867.52, -19229.25, -15702.82, -18493.77, -20762.00, -23153.52, -21234.11, 0.000, 0.000, 0.000, 10:48:32.050, 1583740112050
74, -25244.10, -29848.90, -19235.33, -15697.43, -18473.49, -20750.46, -23105.91, -21236.50, 0.000, 0.000, 0.000, 10:48:32.050, 1583740112050
75, -24538.10, -29754.24, -19075.16, -15566.11, -17710.27, -20694.74, -22754.32, -20902.12, 0.000, 0.000, 0.000, 10:48:32.050, 1583740112050
76, -24205.51, -29738.41, -18971.15, -15476.33, -17248.19, -20663.23, -22615.58, -20711.82, 0.000, 0.000, 0.000, 10:48:32.050, 1583740112050
77, -24696.53, -29813.87, -19065.19, -15545.93, -17719.43, -20701.16, -22877.14, -20920.03, 0.000, 0.000, 0.000, 10:48:32.050, 1583740112050
78, -25275.98, -29865.33, -19242.64, -15719.62, -18500.78, -20771.32, -23160.43, -21239.90, 0.000, 0.000, 0.000, 10:48:32.050, 1583740112050
79, -25241.40, -29849.10, -19247.31, -15710.35, -18486.48, -20757.57, -23113.20, -21242.05, 0.002, -0.016, 0.970, 10:48:32.050, 1583740112050
80, -24538.10, -29763.54, -19078.78, -15561.53, -17717.18, -20691.28, -22759.86, -20901.99, 0.000, 0.000, 0.000, 10:48:32.050, 1583740112050
81, -24208.30, -29741.61, -18975.78, -15468.84, -17253.11, -20660.97, -22624.03, -20710.43, 0.000, 0.000, 0.000, 10:48:32.051, 1583740112051
82, -24696.04, -29815.82, -19068.88, -15540.54, -17721.74, -20702.99, -22884.70, -20920.92, 0.000, 0.000, 0.000, 10:48:32.051, 1583740112051
83, -25281.54, -29878.60, -19246.79, -15713.92, -18501.37, -20774.76, -23169.13, -21244.66, 0.000, 0.000, 0.000, 10:48:32.051, 1583740112051
84, -25254.88, -29865.17, -19256.52, -15710.66, -18495.20, -20763.79, -23126.92, -21253.24, 0.000, 0.000, 0.000, 10:48:32.051, 1583740112051
85, -24553.48, -29778.20, -19091.74, -15573.47, -17731.62, -20703.77, -22776.09, -20917.50, 0.000, 0.000, 0.000, 10:48:32.051, 1583740112051
86, -24207.18, -29744.40, -18971.67, -15465.64, -17251.46, -20658.69, -22623.03, -20712.51, 0.000, 0.000, 0.000, 10:48:32.051, 1583740112051
87, -24688.78, -29814.37, -19064.67, -15539.33, -17715.75, -20700.42, -22880.74, -20918.93, 0.000, 0.000, 0.000, 10:48:32.051, 1583740112051
88, -25278.62, -29876.28, -19242.79, -15717.08, -18500.83, -20777.09, -23168.23, -21243.52, 0.000, 0.000, 0.000, 10:48:32.051, 1583740112051
89, -25255.23, -29859.27, -19250.98, -15713.48, -18496.11, -20767.16, -23125.09, -21251.50, 0.002, -0.018, 0.972, 10:48:32.052, 1583740112052
90, -24557.28, -29774.36, -19089.35, -15576.08, -17736.42, -20705.02, -22773.79, -20915.13, 0.000, 0.000, 0.000, 10:48:32.052, 1583740112052
91, -24211.25, -29754.82, -18980.25, -15471.07, -17259.66, -20662.87, -22627.25, -20712.47, 0.000, 0.000, 0.000, 10:48:32.052, 1583740112052
92, -24689.22, -29819.48, -19067.33, -15534.75, -17715.37, -20696.08, -22882.29, -20914.57, 0.000, 0.000, 0.000, 10:48:32.052, 1583740112052
93, -25272.42, -29873.46, -19247.02, -15719.33, -18499.62, -20773.20, -23166.91, -21240.01, 0.000, 0.000, 0.000, 10:48:32.052, 1583740112052
94, -25244.98, -29860.41, -19260.32, -15726.11, -18504.05, -20767.54, -23127.17, -21252.22, 0.000, 0.000, 0.000, 10:48:32.052, 1583740112052
95, -24545.32, -29771.67, -19094.22, -15583.01, -17742.79, -20704.06, -22775.55, -20914.84, 0.000, 0.000, 0.000, 10:48:32.052, 1583740112052
96, -24200.37, -29739.87, -18976.43, -15457.26, -17257.42, -20652.47, -22623.50, -20704.00, 0.000, 0.000, 0.000, 10:48:32.052, 1583740112052
97, -24678.61, -29805.74, -19061.77, -15521.54, -17709.04, -20688.19, -22875.80, -20903.78, 0.000, 0.000, 0.000, 10:48:32.053, 1583740112053
98, -25267.17, -29864.79, -19247.78, -15719.67, -18498.79, -20777.15, -23167.98, -21239.68, 0.000, 0.000, 0.000, 10:48:32.053, 1583740112053
99, -25254.32, -29858.29, -19268.52, -15722.93, -18510.06, -20772.01, -23133.99, -21255.97, 0.000, -0.020, 0.970, 10:48:32.053, 1583740112053
100, -24558.02, -29774.02, -19098.69, -15579.41, -17745.92, -20708.69, -22779.13, -20918.59, 0.000, 0.000, 0.000, 10:48:32.053, 1583740112053
101, -24204.41, -29744.34, -18970.08, -15464.32, -17253.47, -20661.66, -22617.51, -20708.35, 0.000, 0.000, 0.000, 10:48:32.053, 1583740112053
102, -24677.76, -29812.51, -19057.21, -15524.00, -17703.43, -20694.85, -22868.00, -20906.68, 0.000, 0.000, 0.000, 10:48:32.053, 1583740112053
103, -25261.49, -29865.37, -19235.69, -15706.32, -18488.02, -20768.79, -23150.68, -21229.60, 0.000, 0.000, 0.000, 10:48:32.053, 1583740112053
104, -25251.32, -29853.88, -19250.71, -15714.82, -18496.52, -20762.65, -23114.38, -21246.65, 0.000, 0.000, 0.000, 10:48:32.053, 1583740112053
105, -24555.38, -29765.88, -19086.15, -15579.08, -17740.85, -20702.79, -22765.90, -20914.75, 0.000, 0.000, 0.000, 10:48:32.054, 1583740112054
106, -24199.85, -29739.31, -18967.20, -15466.20, -17250.54, -20656.07, -22611.43, -20703.37, 0.000, 0.000, 0.000, 10:48:32.054, 1583740112054
107, -24674.36, -29811.84, -19059.11, -15536.50, -17701.11, -20695.79, -22868.90, -20904.29, 0.000, 0.000, 0.000, 10:48:32.054, 1583740112054
108, -25261.87, -29862.29, -19237.74, -15715.98, -18488.42, -20769.33, -23158.06, -21230.13, 0.000, 0.000, 0.000, 10:48:32.054, 1583740112054
109, -25254.14, -29846.87, -19256.56, -15719.85, -18503.94, -20761.62, -23126.25, -21249.45, 0.000, -0.022, 0.976, 10:48:32.054, 1583740112054
110, -24563.83, -29770.00, -19087.12, -15575.32, -17741.79, -20696.80, -22771.71, -20915.00, 0.000, 0.000, 0.000, 10:48:32.054, 1583740112054
111, -24201.87, -29751.54, -18973.32, -15475.05, -17253.49, -20658.46, -22615.76, -20709.38, 0.000, 0.000, 0.000, 10:48:32.054, 1583740112054
112, -24667.65, -29822.05, -19061.57, -15550.42, -17699.32, -20700.91, -22870.46, -20913.43, 0.000, 0.000, 0.000, 10:48:32.054, 1583740112054
113, -25258.86, -29873.31, -19235.40, -15722.55, -18482.17, -20771.16, -23157.50, -21236.19, 0.000, 0.000, 0.000, 10:48:32.054, 1583740112054
114, -25260.96, -29860.10, -19250.64, -15716.67, -18502.53, -20758.89, -23125.36, -21251.97, 0.000, 0.000, 0.000, 10:48:32.055, 1583740112055
115, -24568.37, -29773.19, -19087.12, -15567.05, -17745.99, -20692.46, -22774.95, -20917.61, 0.000, 0.000, 0.000, 10:48:32.056, 1583740112056
116, -24204.72, -29745.86, -18969.46, -15459.83, -17251.72, -20651.04, -22618.38, -20707.04, 0.000, 0.000, 0.000, 10:48:32.056, 1583740112056
117, -24666.67, -29807.28, -19060.49, -15529.70, -17691.45, -20690.49, -22869.81, -20902.61, 0.000, 0.000, 0.000, 10:48:32.056, 1583740112056
118, -25258.39, -29856.54, -19244.02, -15721.03, -18482.70, -20772.19, -23163.43, -21233.31, 0.000, 0.000, 0.000, 10:48:32.056, 1583740112056
119, -25255.84, -29846.60, -19245.68, -15721.70, -18497.79, -20757.66, -23122.63, -21248.10, -0.004, -0.022, 0.966, 10:48:32.057, 1583740112057
120, -24565.77, -29772.30, -19081.88, -15578.20, -17745.23, -20695.59, -22772.04, -20915.98, 0.000, 0.000, 0.000, 10:48:32.058, 1583740112058
121, -24198.36, -29743.51, -18973.19, -15468.57, -17254.56, -20656.86, -22615.85, -20707.48, 0.000, 0.000, 0.000, 10:48:32.515, 1583740112515
122, -24661.04, -29804.24, -19051.87, -15523.11, -17684.14, -20688.75, -22861.34, -20898.90, 0.000, 0.000, 0.000, 10:48:32.515, 1583740112515
123, -25255.06, -29865.77, -19230.68, -15710.42, -18474.63, -20768.37, -23153.10, -21228.30, 0.000, 0.000, 0.000, 10:48:32.515, 1583740112515
124, -25262.34, -29857.06, -19256.12, -15720.23, -18511.49, -20764.41, -23128.51, -21253.96, 0.000, 0.000, 0.000, 10:48:32.515, 1583740112515
125, -24572.61, -29771.09, -19092.57, -15580.28, -17758.91, -20702.79, -22779.49, -20921.12, 0.000, 0.000, 0.000, 10:48:32.515, 1583740112515
126, -24199.92, -29739.42, -18973.08, -15470.11, -17255.59, -20658.64, -22617.60, -20706.05, 0.000, 0.000, 0.000, 10:48:32.516, 1583740112516
127, -24657.28, -29808.08, -19054.46, -15530.10, -17681.46, -20691.01, -22863.11, -20897.25, 0.000, 0.000, 0.000, 10:48:32.516, 1583740112516
128, -25255.77, -29873.17, -19241.03, -15721.77, -18479.28, -20776.55, -23159.38, -21233.13, 0.000, 0.000, 0.000, 10:48:32.516, 1583740112516
129, -25268.00, -29864.88, -19266.89, -15737.91, -18520.56, -20777.15, -23137.45, -21262.65, 0.002, -0.024, 0.970, 10:48:32.516, 1583740112516
130, -24579.79, -29775.94, -19101.40, -15596.31, -17766.22, -20712.62, -22784.63, -20929.19, 0.000, 0.000, 0.000, 10:48:32.516, 1583740112516
131, -24203.38, -29741.63, -18976.72, -15474.49, -17255.52, -20661.33, -22614.24, -20707.46, 0.000, 0.000, 0.000, 10:48:32.516, 1583740112516
132, -24661.06, -29811.28, -19057.74, -15533.32, -17680.34, -20694.79, -22858.79, -20897.14, 0.000, 0.000, 0.000, 10:48:32.519, 1583740112519
133, -25258.16, -29871.61, -19238.39, -15720.50, -18473.58, -20775.03, -23152.12, -21229.51, 0.000, 0.000, 0.000, 10:48:32.520, 1583740112520
134, -25275.38, -29865.95, -19259.34, -15727.09, -18512.99, -20768.10, -23128.42, -21256.17, 0.000, 0.000, 0.000, 10:48:32.520, 1583740112520
135, -24587.86, -29779.36, -19098.47, -15589.42, -17762.53, -20705.25, -22779.06, -20924.83, 0.000, 0.000, 0.000, 10:48:32.520, 1583740112520
136, -24213.51, -29747.06, -18979.67, -15477.82, -17253.24, -20662.38, -22614.80, -20708.04, 0.000, 0.000, 0.000, 10:48:32.520, 1583740112520
137, -24669.15, -29820.36, -19058.50, -15532.99, -17676.12, -20693.65, -22860.71, -20896.00, 0.000, 0.000, 0.000, 10:48:32.520, 1583740112520
138, -25259.53, -29874.98, -19233.03, -15714.04, -18466.38, -20767.54, -23149.97, -21220.57, 0.000, 0.000, 0.000, 10:48:32.520, 1583740112520
139, -25274.30, -29867.05, -19259.74, -15727.18, -18516.95, -20766.58, -23133.09, -21254.61, 0.004, -0.022, 0.972, 10:48:32.521, 1583740112521
140, -24589.53, -29782.47, -19098.58, -15587.75, -17770.46, -20705.13, -22786.84, -20927.07, 0.000, 0.000, 0.000, 10:48:32.521, 1583740112521
141, -24208.66, -29747.11, -18975.83, -15470.87, -17257.83, -20657.68, -22618.13, -20706.86, 0.000, 0.000, 0.000, 10:48:32.521, 1583740112521
142, -24660.25, -29818.39, -19055.22, -15525.99, -17675.40, -20689.62, -22860.47, -20894.50, 0.000, 0.000, 0.000, 10:48:32.521, 1583740112521
143, -25256.08, -29881.35, -19234.55, -15712.92, -18470.27, -20769.96, -23154.33, -21226.91, 0.000, 0.000, 0.000, 10:48:32.521, 1583740112521
144, -25271.64, -29869.33, -19258.06, -15720.45, -18518.73, -20763.85, -23133.70, -21257.11, 0.000, 0.000, 0.000, 10:48:32.521, 1583740112521
145, -24588.13, -29775.00, -19097.51, -15585.42, -17771.11, -20704.98, -22786.42, -20931.34, 0.000, 0.000, 0.000, 10:48:32.521, 1583740112521
146, -24199.88, -29736.29, -18978.89, -15480.97, -17256.31, -20663.94, -22616.32, -20712.38, 0.000, 0.000, 0.000, 10:48:32.521, 1583740112521
147, -24649.59, -29810.39, -19056.58, -15532.12, -17667.13, -20693.24, -22855.26, -20892.89, 0.000, 0.000, 0.000, 10:48:32.522, 1583740112522
148, -25254.50, -29875.68, -19231.51, -15710.28, -18463.57, -20769.51, -23148.05, -21222.18, 0.000, 0.000, 0.000, 10:48:32.522, 1583740112522
149, -25274.95, -29859.13, -19252.94, -15717.17, -18515.47, -20761.17, -23128.22, -21253.78, 0.006, -0.020, 0.972, 10:48:32.522, 1583740112522
150, -24591.25, -29771.83, -19095.45, -15584.02, -17768.94, -20702.45, -22783.38, -20927.51, 0.000, 0.000, 0.000, 10:48:32.522, 1583740112522
151, -24206.67, -29745.83, -18979.45, -15477.73, -17256.64, -20664.97, -22618.65, -20711.26, 0.000, 0.000, 0.000, 10:48:32.522, 1583740112522
152, -24653.06, -29818.92, -19055.55, -15533.93, -17666.33, -20697.65, -22859.82, -20896.47, 0.000, 0.000, 0.000, 10:48:32.522, 1583740112522
153, -25252.75, -29881.96, -19229.92, -15716.07, -18463.97, -20773.96, -23150.24, -21225.17, 0.000, 0.000, 0.000, 10:48:32.522, 1583740112522
154, -25275.04, -29870.42, -19255.22, -15727.94, -18521.64, -20768.53, -23132.47, -21259.17, 0.000, 0.000, 0.000, 10:48:32.522, 1583740112522
155, -24592.89, -29780.37, -19101.93, -15594.05, -17781.04, -20710.23, -22790.38, -20935.69, 0.000, 0.000, 0.000, 10:48:32.523, 1583740112523
156, -24202.18, -29751.36, -18984.28, -15485.53, -17260.51, -20669.22, -22620.99, -20716.31, 0.000, 0.000, 0.000, 10:48:32.523, 1583740112523
157, -24644.38, -29818.54, -19057.10, -15533.66, -17662.84, -20695.90, -22858.26, -20894.14, 0.000, 0.000, 0.000, 10:48:32.523, 1583740112523
158, -25247.08, -29878.83, -19239.91, -15720.99, -18464.24, -20776.82, -23156.88, -21225.86, 0.000, 0.000, 0.000, 10:48:32.523, 1583740112523
159, -25285.07, -29874.36, -19271.96, -15740.12, -18531.85, -20776.21, -23146.73, -21268.06, 0.002, -0.022, 0.972, 10:48:32.523, 1583740112523
160, -24608.98, -29791.23, -19114.65, -15601.61, -17790.38, -20716.29, -22802.40, -20945.21, 0.000, 0.000, 0.000, 10:48:32.523, 1583740112523
161, -24214.92, -29759.98, -18994.94, -15491.46, -17266.52, -20676.97, -22630.56, -20725.95, 0.000, 0.000, 0.000, 10:48:32.524, 1583740112524
162, -24651.31, -29824.74, -19069.26, -15542.60, -17668.32, -20707.97, -22868.20, -20907.20, 0.000, 0.000, 0.000, 10:48:32.524, 1583740112524
163, -25251.81, -29879.39, -19244.16, -15724.43, -18467.41, -20782.96, -23162.15, -21233.75, 0.000, 0.000, 0.000, 10:48:32.524, 1583740112524
164, -25284.56, -29865.19, -19268.30, -15735.47, -18534.51, -20776.46, -23147.40, -21269.76, 0.000, 0.000, 0.000, 10:48:32.524, 1583740112524
165, -24608.11, -29781.42, -19112.91, -15604.45, -17795.70, -20719.20, -22803.99, -20948.46, 0.000, 0.000, 0.000, 10:48:32.524, 1583740112524
166, -24206.31, -29748.49, -18993.30, -15494.54, -17271.21, -20677.53, -22629.42, -20725.27, 0.000, 0.000, 0.000, 10:48:32.524, 1583740112524
167, -24644.00, -29810.21, -19063.45, -15537.52, -17662.95, -20702.14, -22863.22, -20899.01, 0.000, 0.000, 0.000, 10:48:32.524, 1583740112524
168, -25243.30, -29858.33, -19234.35, -15708.67, -18458.74, -20770.74, -23154.69, -21220.77, 0.000, 0.000, 0.000, 10:48:32.524, 1583740112524
169, -25281.61, -29847.60, -19263.04, -15729.12, -18535.65, -20771.27, -23146.48, -21265.29, 0.000, 0.000, 0.000, 10:48:32.524, 1583740112524
170, -24607.46, -29776.43, -19112.22, -15606.57, -17802.76, -20720.38, -22807.79, -20949.78, 0.008, -0.018, 0.966, 10:48:32.525, 1583740112525
171, -24204.28, -29749.25, -18997.75, -15507.01, -17275.71, -20684.46, -22635.86, -20728.61, 0.000, 0.000, 0.000, 10:48:32.525, 1583740112525
172, -24637.08, -29809.65, -19062.69, -15545.33, -17663.67, -20706.97, -22866.75, -20898.54, 0.000, 0.000, 0.000, 10:48:32.525, 1583740112525
173, -25239.32, -29865.33, -19233.88, -15710.19, -18460.69, -20774.20, -23158.08, -21221.77, 0.000, 0.000, 0.000, 10:48:32.525, 1583740112525
174, -25282.19, -29859.52, -19263.49, -15724.79, -18539.70, -20770.38, -23147.24, -21264.55, 0.000, 0.000, 0.000, 10:48:32.525, 1583740112525
175, -24610.86, -29771.23, -19108.28, -15591.39, -17803.21, -20710.95, -22803.70, -20943.27, 0.000, 0.000, 0.000, 10:48:32.525, 1583740112525
176, -24208.82, -29748.07, -18988.12, -15483.25, -17270.99, -20671.61, -22626.02, -20720.36, 0.000, 0.000, 0.000, 10:48:32.526, 1583740112526
177, -24639.62, -29821.00, -19051.44, -15524.16, -17652.38, -20693.60, -22852.96, -20888.44, 0.000, 0.000, 0.000, 10:48:32.526, 1583740112526
178, -25241.47, -29879.23, -19226.66, -15705.34, -18453.42, -20768.70, -23148.45, -21214.84, 0.000, 0.000, 0.000, 10:48:32.526, 1583740112526
179, -25284.94, -29869.33, -19259.58, -15727.56, -18538.25, -20770.22, -23142.95, -21261.58, 0.000, 0.000, 0.000, 10:48:32.526, 1583740112526
180, -24615.15, -29783.56, -19109.42, -15600.04, -17807.99, -20716.20, -22805.26, -20946.51, 0.004, -0.018, 0.972, 10:48:32.526, 1583740112526
181, -24204.10, -29749.59, -18987.96, -15486.43, -17268.60, -20672.21, -22625.24, -20719.44, 0.000, 0.000, 0.000, 10:48:32.527, 1583740112527
182, -24631.53, -29818.61, -19056.67, -15528.38, -17650.17, -20696.91, -22856.02, -20890.23, 0.000, 0.000, 0.000, 10:48:32.527, 1583740112527
183, -25239.05, -29877.67, -19231.60, -15708.02, -18455.03, -20771.14, -23153.14, -21217.53, 0.000, 0.000, 0.000, 10:48:32.527, 1583740112527
184, -25292.36, -29871.83, -19266.00, -15728.52, -18545.85, -20771.92, -23152.63, -21268.00, 0.000, 0.000, 0.000, 10:48:32.527, 1583740112527
185, -24622.95, -29783.12, -19114.00, -15596.89, -17815.05, -20715.02, -22813.60, -20950.40, 0.000, 0.000, 0.000, 10:48:32.528, 1583740112528
186, -24211.48, -29754.57, -18990.62, -15485.60, -17275.75, -20673.06, -22631.83, -20720.83, 0.000, 0.000, 0.000, 10:48:32.528, 1583740112528
187, -24637.52, -29820.24, -19060.92, -15533.05, -17656.56, -20702.34, -22863.20, -20893.27, 0.000, 0.000, 0.000, 10:48:32.528, 1583740112528
188, -25245.60, -29877.73, -19234.81, -15713.68, -18460.21, -20777.44, -23159.49, -21221.35, 0.000, 0.000, 0.000, 10:48:32.528, 1583740112528
189, -25298.80, -29870.58, -19265.73, -15733.97, -18550.40, -20774.98, -23152.67, -21269.34, 0.000, 0.000, 0.000, 10:48:32.528, 1583740112528
190, -24626.39, -29781.87, -19113.49, -15604.11, -17818.34, -20717.21, -22811.03, -20951.94, 0.002, -0.016, 0.970, 10:48:32.528, 1583740112528
191, -24211.39, -29757.64, -18998.02, -15500.60, -17282.99, -20682.36, -22633.96, -20729.21, 0.000, 0.000, 0.000, 10:48:32.529, 1583740112529
192, -24635.29, -29816.89, -19067.96, -15551.23, -17658.91, -20714.88, -22865.77, -20902.79, 0.000, 0.000, 0.000, 10:48:32.529, 1583740112529
193, -25242.40, -29874.04, -19239.35, -15726.51, -18460.44, -20785.60, -23161.21, -21227.92, 0.000, 0.000, 0.000, 10:48:32.529, 1583740112529
194, -25292.83, -29872.03, -19268.43, -15742.15, -18554.72, -20778.65, -23153.19, -21272.09, 0.000, 0.000, 0.000, 10:48:32.529, 1583740112529
195, -24627.98, -29790.70, -19115.81, -15617.77, -17826.39, -20726.04, -22813.80, -20958.18, 0.000, 0.000, 0.000, 10:48:32.529, 1583740112529
196, -24211.54, -29755.29, -18989.48, -15498.61, -17275.19, -20680.68, -22626.38, -20724.16, 0.000, 0.000, 0.000, 10:48:32.530, 1583740112530
197, -24630.41, -29817.00, -19058.82, -15541.73, -17645.76, -20706.77, -22854.19, -20891.91, 0.000, 0.000, 0.000, 10:48:32.530, 1583740112530
198, -25230.67, -29863.49, -19237.05, -15719.00, -18451.30, -20777.60, -23150.68, -21217.19, 0.000, 0.000, 0.000, 10:48:32.530, 1583740112530
199, -25293.57, -29853.77, -19258.26, -15725.19, -18544.06, -20764.64, -23144.27, -21261.25, 0.000, 0.000, 0.000, 10:48:32.530, 1583740112530
200, -24627.75, -29771.27, -19107.21, -15595.10, -17817.78, -20708.46, -22807.41, -20947.25, 0.004, -0.016, 0.972, 10:48:32.530, 1583740112530
201, -24203.18, -29741.65, -18987.72, -15490.58, -17274.41, -20671.81, -22624.64, -20719.20, 0.000, 0.000, 0.000, 10:48:32.530, 1583740112530
202, -24617.45, -29808.31, -19055.58, -15526.44, -17639.82, -20694.63, -22850.84, -20883.14, 0.000, 0.000, 0.000, 10:48:32.530, 1583740112530
203, -25225.46, -29858.85, -19221.11, -15692.98, -18438.00, -20759.34, -23143.53, -21204.00, 0.000, 0.000, 0.000, 10:48:32.531, 1583740112531
204, -25295.29, -29859.11, -19256.90, -15721.12, -18547.16, -20761.48, -23148.00, -21260.13, 0.000, 0.000, 0.000, 10:48:32.531, 1583740112531
205, -24629.05, -29776.32, -19106.96, -15594.10, -17824.71, -20706.68, -22812.68, -20945.69, 0.000, 0.000, 0.000, 10:48:32.531, 1583740112531
206, -24204.23, -29734.10, -18986.49, -15485.09, -17274.93, -20668.75, -22627.23, -20713.45, 0.000, 0.000, 0.000, 10:48:32.531, 1583740112531
207, -24621.38, -29804.75, -19054.57, -15530.39, -17639.77, -20696.20, -22853.12, -20879.01, 0.000, 0.000, 0.000, 10:48:32.531, 1583740112531
208, -25227.47, -29862.24, -19230.03, -15709.72, -18444.14, -20770.16, -23150.08, -21206.55, 0.000, 0.000, 0.000, 10:48:32.531, 1583740112531
209, -25296.94, -29856.70, -19264.65, -15729.30, -18552.42, -20766.27, -23153.63, -21261.13, 0.000, 0.000, 0.000, 10:48:32.532, 1583740112532
210, -24634.62, -29779.83, -19112.75, -15597.11, -17827.73, -20707.46, -22814.36, -20945.19, 0.000, -0.018, 0.976, 10:48:32.532, 1583740112532
211, -24204.97, -29743.78, -18983.27, -15481.53, -17268.96, -20663.76, -22620.12, -20707.48, 0.000, 0.000, 0.000, 10:48:32.532, 1583740112532
212, -24617.34, -29804.69, -19043.57, -15521.77, -17621.56, -20688.15, -22840.04, -20868.84, 0.000, 0.000, 0.000, 10:48:32.532, 1583740112532
213, -25233.71, -29869.80, -19226.43, -15710.95, -18435.25, -20771.56, -23146.62, -21208.41, 0.000, 0.000, 0.000, 10:48:32.532, 1583740112532
214, -25299.69, -29862.40, -19261.26, -15731.47, -18548.59, -20767.90, -23148.96, -21264.13, 0.000, 0.000, 0.000, 10:48:32.533, 1583740112533
215, -24632.74, -29773.89, -19105.62, -15596.87, -17822.74, -20706.97, -22808.50, -20947.41, 0.000, 0.000, 0.000, 10:48:32.533, 1583740112533
216, -24204.48, -29745.75, -18981.35, -15487.37, -17269.72, -20668.75, -22620.72, -20714.03, 0.000, 0.000, 0.000, 10:48:32.533, 1583740112533
217, -24621.32, -29818.12, -19048.47, -15532.05, -17626.90, -20699.32, -22846.52, -20880.75, 0.000, 0.000, 0.000, 10:48:32.533, 1583740112533
218, -25229.78, -29877.51, -19224.02, -15713.57, -18435.09, -20774.54, -23144.74, -21212.14, 0.000, 0.000, 0.000, 10:48:32.533, 1583740112533
219, -25306.13, -29869.71, -19263.25, -15740.90, -18557.58, -20775.74, -23153.52, -21274.59, 0.000, 0.000, 0.000, 10:48:32.534, 1583740112534
220, -24653.88, -29789.55, -19115.77, -15614.95, -17841.07, -20721.61, -22821.53, -20965.85, 0.002, -0.018, 0.966, 10:48:32.534, 1583740112534
221, -24214.34, -29742.24, -18985.62, -15494.09, -17273.54, -20673.57, -22624.01, -20721.50, 0.000, 0.000, 0.000, 10:48:32.534, 1583740112534
222, -24613.94, -29792.37, -19042.19, -15524.67, -17616.21, -20690.74, -22838.27, -20872.35, 0.000, 0.000, 0.000, 10:48:32.534, 1583740112534
223, -25223.12, -29858.73, -19217.52, -15701.41, -18423.78, -20762.24, -23138.70, -21199.78, 0.000, 0.000, 0.000, 10:48:32.534, 1583740112534
224, -25302.06, -29854.29, -19261.35, -15728.59, -18552.95, -20764.19, -23152.76, -21262.86, 0.000, 0.000, 0.000, 10:48:32.535, 1583740112535
225, -24645.44, -29771.72, -19115.81, -15602.66, -17839.75, -20711.04, -22821.04, -20952.90, 0.000, 0.000, 0.000, 10:48:32.535, 1583740112535
226, -24201.84, -29741.95, -18983.80, -15486.67, -17273.49, -20664.68, -22623.05, -20710.48, 0.000, 0.000, 0.000, 10:48:32.535, 1583740112535
227, -24608.53, -29807.48, -19052.83, -15532.99, -17623.39, -20695.10, -22847.04, -20873.98, 0.000, 0.000, 0.000, 10:48:32.535, 1583740112535
228, -25214.91, -29856.77, -19231.24, -15717.54, -18434.80, -20773.87, -23146.97, -21206.04, 0.000, 0.000, 0.000, 10:48:32.535, 1583740112535
229, -25299.92, -29856.99, -19268.16, -15737.91, -18561.71, -20772.97, -23156.47, -21268.15, 0.000, 0.000, 0.000, 10:48:32.535, 1583740112535
230, -24652.56, -29785.42, -19116.57, -15600.33, -17840.13, -20710.48, -22822.09, -20953.40, -0.002, -0.018, 0.974, 10:48:32.535, 1583740112535
231, -24212.46, -29748.45, -18992.03, -15493.31, -17272.06, -20671.16, -22627.16, -20713.99, 0.000, 0.000, 0.000, 10:48:32.535, 1583740112535
232, -24608.06, -29800.78, -19051.71, -15532.99, -17612.53, -20696.11, -22845.16, -20870.70, 0.000, 0.000, 0.000, 10:48:32.536, 1583740112536
233, -25219.94, -29864.14, -19228.62, -15715.89, -18423.83, -20773.38, -23147.60, -21202.91, 0.000, 0.000, 0.000, 10:48:32.536, 1583740112536
234, -25312.95, -29862.44, -19270.49, -15741.26, -18558.99, -20772.79, -23162.15, -21267.82, 0.000, 0.000, 0.000, 10:48:32.536, 1583740112536
235, -24653.68, -29775.56, -19110.65, -15595.44, -17835.06, -20702.16, -22817.89, -20946.96, 0.000, 0.000, 0.000, 10:48:32.536, 1583740112536
236, -24207.07, -29744.54, -18982.91, -15483.70, -17264.13, -20661.01, -22621.26, -20706.19, 0.000, 0.000, 0.000, 10:48:32.536, 1583740112536
237, -24608.87, -29803.08, -19047.04, -15520.07, -17603.61, -20688.44, -22843.75, -20863.81, 0.000, 0.000, 0.000, 10:48:32.536, 1583740112536
238, -25221.46, -29860.21, -19225.09, -15703.51, -18417.68, -20766.18, -23147.04, -21197.77, 0.000, 0.000, 0.000, 10:48:32.536, 1583740112536
239, -25312.81, -29869.30, -19267.56, -15747.34, -18561.45, -20776.75, -23161.79, -21273.45, 0.000, 0.000, 0.000, 10:48:32.536, 1583740112536
240, -24664.54, -29786.29, -19120.38, -15617.25, -17850.48, -20723.62, -22830.25, -20968.33, 0.002, -0.020, 0.974, 10:48:32.537, 1583740112537
241, -24207.68, -29744.11, -18985.82, -15485.15, -17270.30, -20669.98, -22624.14, -20714.08, 0.000, 0.000, 0.000, 10:48:32.995, 1583740112995
242, -24601.98, -29812.13, -19041.81, -15519.58, -17597.77, -20691.12, -22838.74, -20864.88, 0.000, 0.000, 0.000, 10:48:32.996, 1583740112996
243, -25219.16, -29871.88, -19220.13, -15705.03, -18411.11, -20769.40, -23143.93, -21198.42, 0.000, 0.000, 0.000, 10:48:32.996, 1583740112996
244, -25311.32, -29870.45, -19262.84, -15728.88, -18553.60, -20767.74, -23157.88, -21264.71, 0.000, 0.000, 0.000, 10:48:32.996, 1583740112996
245, -24658.31, -29783.14, -19110.99, -15597.32, -17838.39, -20707.68, -22822.58, -20952.44, 0.000, 0.000, 0.000, 10:48:32.996, 1583740112996
246, -24203.43, -29741.65, -18982.15, -15492.71, -17260.62, -20668.52, -22621.48, -20708.02, 0.000, 0.000, 0.000, 10:48:32.996, 1583740112996
247, -24596.35, -29805.42, -19041.50, -15522.15, -17589.64, -20689.58, -22836.22, -20856.59, 0.000, 0.000, 0.000, 10:48:32.996, 1583740112996
248, -25210.93, -29870.40, -19211.66, -15687.77, -18395.78, -20757.53, -23134.14, -21182.61, 0.000, 0.000, 0.000, 10:48:32.997, 1583740112997
249, -25315.12, -29878.04, -19260.07, -15718.62, -18547.25, -20761.91, -23155.87, -21257.31, 0.000, 0.000, 0.000, 10:48:32.997, 1583740112997
250, -24666.80, -29780.66, -19104.62, -15581.09, -17832.09, -20696.31, -22818.87, -20943.29, 0.000, -0.022, 0.970, 10:48:32.997, 1583740112997
251, -24205.60, -29739.62, -18967.44, -15464.63, -17246.49, -20648.96, -22610.91, -20692.78, 0.000, 0.000, 0.000, 10:48:32.998, 1583740112998
252, -24592.69, -29810.21, -19030.95, -15505.70, -17576.52, -20676.90, -22827.10, -20845.59, 0.000, 0.000, 0.000, 10:48:33.002, 1583740113002
253, -25205.90, -29865.60, -19210.45, -15690.30, -18392.69, -20754.20, -23130.72, -21178.90, 0.000, 0.000, 0.000, 10:48:33.003, 1583740113003
254, -25308.41, -29862.64, -19259.45, -15728.12, -18547.61, -20762.15, -23153.75, -21256.62, 0.000, 0.000, 0.000, 10:48:33.003, 1583740113003
255, -24668.44, -29792.93, -19114.61, -15601.99, -17844.78, -20708.76, -22825.94, -20953.91, 0.000, 0.000, 0.000, 10:48:33.003, 1583740113003
0, -24200.99, -29743.02, -18980.12, -15481.17, -17256.02, -20659.40, -22614.06, -20699.59, 0.000, 0.000, 0.000, 10:48:33.003, 1583740113003
1, -24584.06, -29803.12, -19035.50, -15518.10, -17575.00, -20682.94, -22824.75, -20847.56, 0.000, 0.000, 0.000, 10:48:33.003, 1583740113003
2, -25202.11, -29868.99, -19218.95, -15709.27, -18395.71, -20767.25, -23133.00, -21187.35, 0.000, 0.000, 0.000, 10:48:33.003, 1583740113003
3, -25308.72, -29870.18, -19267.58, -15741.04, -18559.03, -20772.46, -23157.72, -21265.16, 0.000, 0.000, 0.000, 10:48:33.003, 1583740113003
4, -24660.57, -29789.20, -19118.65, -15605.09, -17852.38, -20712.82, -22826.21, -20956.41, 0.000, 0.000, 0.000, 10:48:33.004, 1583740113004
5, -24198.96, -29747.02, -18992.99, -15490.81, -17271.37, -20672.14, -22623.12, -20709.07, 0.004, -0.022, 0.980, 10:48:33.004, 1583740113004
6, -24575.52, -29805.63, -19043.60, -15515.17, -17580.96, -20688.42, -22827.43, -20848.57, 0.000, 0.000, 0.000, 10:48:33.004, 1583740113004
7, -25198.26, -29868.37, -19227.35, -15705.81, -18401.41, -20772.59, -23137.68, -21186.10, 0.000, 0.000, 0.000, 10:48:33.005, 1583740113005
8, -25307.25, -29866.89, -19280.19, -15749.69, -18570.32, -20782.65, -23167.16, -21268.98, 0.000, 0.000, 0.000, 10:48:33.005, 1583740113005
9, -24665.73, -29790.90, -19131.24, -15621.52, -17867.47, -20725.47, -22837.83, -20965.67, 0.000, 0.000, 0.000, 10:48:33.005, 1583740113005
10, -24207.56, -29751.87, -18996.66, -15498.56, -17278.21, -20677.87, -22628.71, -20713.38, 0.000, 0.000, 0.000, 10:48:33.005, 1583740113005
11, -24585.11, -29812.02, -19046.21, -15516.29, -17581.48, -20689.69, -22830.72, -20850.42, 0.000, 0.000, 0.000, 10:48:33.006, 1583740113006
12, -25200.50, -29872.17, -19218.07, -15691.68, -18388.98, -20760.01, -23128.98, -21177.92, 0.000, 0.000, 0.000, 10:48:33.006, 1583740113006
13, -25314.15, -29868.21, -19271.56, -15737.28, -18563.14, -20771.79, -23160.01, -21263.13, 0.000, 0.000, 0.000, 10:48:33.006, 1583740113006
14, -24676.30, -29789.31, -19132.18, -15616.67, -17869.24, -20722.17, -22838.32, -20967.19, 0.000, 0.000, 0.000, 10:48:33.006, 1583740113006
15, -24205.51, -29751.89, -18994.45, -15493.20, -17274.19, -20673.44, -22624.03, -20710.81, 0.004, -0.022, 0.974, 10:48:33.006, 1583740113006
16, -24582.69, -29818.77, -19044.51, -15522.86, -17579.40, -20694.90, -22829.29, -20853.42, 0.000, 0.000, 0.000, 10:48:33.006, 1583740113006
17, -25199.40, -29882.85, -19222.50, -15703.64, -18392.24, -20773.11, -23134.66, -21188.49, 0.000, 0.000, 0.000, 10:48:33.006, 1583740113006
18, -25314.33, -29878.00, -19273.62, -15736.77, -18565.00, -20776.77, -23164.03, -21270.39, 0.000, 0.000, 0.000, 10:48:33.006, 1583740113006
19, -24677.85, -29790.45, -19125.40, -15607.91, -17866.96, -20718.21, -22832.62, -20966.58, 0.000, 0.000, 0.000, 10:48:33.007, 1583740113007
20, -24200.26, -29751.36, -18987.94, -15493.60, -17269.45, -20673.04, -22616.37, -20709.47, 0.000, 0.000, 0.000, 10:48:33.007, 1583740113007
21, -24570.40, -29805.36, -19041.81, -15524.76, -17569.95, -20694.00, -22823.72, -20851.05, 0.000, 0.000, 0.000, 10:48:33.007, 1583740113007
22, -25191.67, -29860.86, -19217.29, -15704.16, -18382.10, -20769.26, -23130.88, -21185.27, 0.000, 0.000, 0.000, 10:48:33.007, 1583740113007
23, -25312.93, -29869.51, -19262.91, -15729.26, -18557.56, -20764.81, -23158.33, -21263.08, 0.000, 0.000, 0.000, 10:48:33.007, 1583740113007
24, -24675.19, -29785.75, -19116.64, -15592.15, -17861.55, -20701.38, -22831.72, -20956.03, 0.000, 0.000, 0.000, 10:48:33.007, 1583740113007
25, -24190.09, -29737.41, -18979.33, -15468.97, -17260.04, -20651.38, -22612.61, -20693.67, 0.006, -0.020, 0.970, 10:48:33.007, 1583740113007
26, -24565.62, -29806.59, -19032.55, -15501.98, -17558.88, -20674.96, -22816.48, -20833.48, 0.000, 0.000, 0.000, 10:48:33.007, 1583740113007
27, -25187.60, -29867.38, -19209.24, -15687.55, -18374.05, -20752.81, -23121.18, -21167.55, 0.000, 0.000, 0.000, 10:48:33.008, 1583740113008
28, -25318.45, -29874.27, -19267.78, -15739.36, -18564.31, -20768.03, -23160.09, -21261.47, 0.000, 0.000, 0.000, 10:48:33.008, 1583740113008
29, -24684.55, -29791.68, -19120.06, -15616.43, -17869.12, -20712.60, -22830.90, -20961.15, 0.000, 0.000, 0.000, 10:48:33.008, 1583740113008
30, -24200.54, -29744.07, -18979.85, -15476.62, -17260.75, -20656.14, -22610.00, -20697.40, 0.000, 0.000, 0.000, 10:48:33.008, 1583740113008
31, -24566.49, -29802.83, -19027.35, -15492.80, -17553.12, -20672.61, -22812.30, -20833.97, 0.000, 0.000, 0.000, 10:48:33.008, 1583740113008
32, -25187.44, -29862.31, -19208.28, -15685.67, -18374.03, -20756.59, -23123.50, -21172.96, 0.000, 0.000, 0.000, 10:48:33.008, 1583740113008
33, -25317.69, -29875.81, -19269.21, -15733.53, -18569.63, -20770.27, -23165.86, -21266.54, 0.000, 0.000, 0.000, 10:48:33.008, 1583740113008
34, -24691.05, -29797.71, -19127.53, -15610.50, -17882.33, -20717.63, -22845.07, -20971.46, 0.000, 0.000, 0.000, 10:48:33.009, 1583740113009
35, -24205.42, -29756.16, -18985.88, -15483.70, -17272.29, -20667.63, -22622.15, -20709.40, 0.004, -0.016, 0.972, 10:48:33.009, 1583740113009
36, -24575.41, -29824.63, -19035.01, -15514.01, -17560.98, -20690.76, -22821.78, -20847.47, 0.000, 0.000, 0.000, 10:48:33.009, 1583740113009
37, -25197.72, -29884.53, -19205.98, -15688.49, -18371.32, -20763.00, -23125.05, -21177.14, 0.000, 0.000, 0.000, 10:48:33.009, 1583740113009
38, -25324.99, -29876.35, -19258.24, -15725.66, -18561.42, -20766.38, -23161.03, -21264.53, 0.000, 0.000, 0.000, 10:48:33.009, 1583740113009
39, -24693.40, -29790.22, -19117.76, -15605.34, -17876.39, -20713.00, -22840.33, -20968.64, 0.000, 0.000, 0.000, 10:48:33.010, 1583740113010
40, -24205.91, -29756.12, -18986.91, -15491.37, -17274.84, -20670.98, -22624.44, -20711.55, 0.000, 0.000, 0.000, 10:48:33.010, 1583740113010
41, -24566.96, -29817.61, -19037.40, -15513.88, -17558.23, -20688.80, -22823.19, -20843.94, 0.000, 0.000, 0.000, 10:48:33.010, 1583740113010
42, -25190.35, -29871.90, -19214.19, -15697.56, -18373.71, -20766.20, -23130.43, -21177.99, 0.000, 0.000, 0.000, 10:48:33.010, 1583740113010
43, -25322.29, -29872.19, -19264.65, -15733.50, -18567.68, -20768.01, -23166.29, -21264.78, 0.000, 0.000, 0.000, 10:48:33.010, 1583740113010
44, -24693.89, -29798.58, -19121.45, -15606.21, -17881.64, -20709.79, -22844.53, -20967.21, 0.000, 0.000, 0.000, 10:48:33.011, 1583740113011
45, -24210.83, -29749.66, -18989.53, -15489.49, -17277.54, -20667.29, -22626.87, -20710.16, 0.006, -0.020, 0.964, 10:48:33.011, 1583740113011
46, -24569.24, -29805.87, -19034.23, -15507.06, -17555.57, -20681.96, -22822.67, -20839.89, 0.000, 0.000, 0.000, 10:48:33.011, 1583740113011
47, -25192.87, -29879.30, -19212.87, -15690.41, -18372.96, -20760.72, -23132.67, -21177.61, 0.000, 0.000, 0.000, 10:48:33.012, 1583740113012
48, -25331.03, -29883.72, -19273.24, -15741.93, -18580.49, -20775.90, -23174.11, -21277.88, 0.000, 0.000, 0.000, 10:48:33.012, 1583740113012
49, -24705.36, -29806.47, -19131.86, -15619.91, -17899.19, -20724.34, -22853.36, -20985.92, 0.000, 0.000, 0.000, 10:48:33.012, 1583740113012
50, -24206.63, -29761.84, -18993.89, -15498.27, -17286.15, -20677.53, -22628.55, -20722.08, 0.000, 0.000, 0.000, 10:48:33.012, 1583740113012
51, -24561.57, -29824.65, -19041.36, -15523.40, -17559.46, -20697.25, -22823.97, -20852.77, 0.000, 0.000, 0.000, 10:48:33.012, 1583740113012
52, -25192.38, -29878.78, -19221.99, -15713.52, -18380.13, -20779.68, -23135.44, -21191.93, 0.000, 0.000, 0.000, 10:48:33.013, 1583740113013
53, -25335.41, -29877.93, -19278.58, -15757.76, -18588.74, -20789.51, -23177.02, -21287.46, 0.000, 0.000, 0.000, 10:48:33.013, 1583740113013
54, -24714.01, -29801.40, -19130.72, -15620.94, -17900.33, -20727.08, -22854.48, -20989.49, 0.000, 0.000, 0.000, 10:48:33.013, 1583740113013
55, -24219.95, -29766.17, -18986.89, -15491.93, -17280.54, -20674.49, -22626.76, -20721.61, 0.006, -0.020, 0.966, 10:48:33.013, 1583740113013
56, -24568.03, -29822.52, -19032.53, -15516.07, -17548.94, -20691.57, -22817.82, -20846.96, 0.000, 0.000, 0.000, 10:48:33.013, 1583740113013
57, -25193.19, -29879.28, -19213.71, -15700.04, -18367.84, -20770.71, -23129.29, -21180.89, 0.000, 0.000, 0.000, 10:48:33.013, 1583740113013
58, -25341.54, -29880.26, -19278.20, -15752.32, -18584.96, -20784.35, -23177.98, -21281.14, 0.000, 0.000, 0.000, 10:48:33.013, 1583740113013
59, -24715.51, -29800.73, -19135.69, -15620.54, -17904.48, -20723.62, -22855.98, -20982.21, 0.000, 0.000, 0.000, 10:48:33.014, 1583740113014
60, -24204.57, -29746.97, -18983.67, -15479.01, -17275.33, -20662.53, -22622.02, -20705.11, 0.000, 0.000, 0.000, 10:48:33.014, 1583740113014
61, -24548.96, -29806.59, -19026.45, -15495.66, -17537.89, -20677.17, -22814.13, -20830.33, 0.000, 0.000, 0.000, 10:48:33.014, 1583740113014
62, -25182.68, -29865.42, -19203.72, -15680.91, -18357.08, -20754.73, -23123.71, -21164.58, 0.000, 0.000, 0.000, 10:48:33.014, 1583740113014
63, -25335.28, -29865.82, -19263.56, -15726.62, -18573.94, -20763.67, -23169.13, -21264.78, 0.000, 0.000, 0.000, 10:48:33.014, 1583740113014
64, -24715.64, -29801.07, -19124.00, -15606.90, -17898.05, -20711.39, -22850.90, -20975.53, 0.000, 0.000, 0.000, 10:48:33.014, 1583740113014
65, -24210.31, -29756.45, -18986.87, -15487.99, -17276.60, -20665.95, -22622.91, -20709.94, 0.002, -0.020, 0.968, 10:48:33.014, 1583740113014
66, -24549.35, -29812.69, -19025.92, -15499.10, -17531.41, -20676.28, -22807.90, -20827.94, 0.000, 0.000, 0.000, 10:48:33.014, 1583740113014
67, -25178.26, -29875.36, -19205.58, -15684.84, -18350.47, -20757.24, -23119.12, -21164.38, 0.000, 0.000, 0.000, 10:48:33.015, 1583740113015
68, -25335.34, -29885.78, -19271.81, -15740.23, -18577.81, -20773.24, -23173.15, -21271.19, 0.000, 0.000, 0.000, 10:48:33.015, 1583740113015
69, -24715.53, -29798.45, -19129.99, -15611.40, -17902.23, -20714.59, -22853.14, -20978.14, 0.000, 0.000, 0.000, 10:48:33.015, 1583740113015
70, -24207.01, -29748.76, -18986.55, -15482.74, -17275.60, -20664.16, -22621.19, -20708.09, 0.000, 0.000, 0.000, 10:48:33.015, 1583740113015
71, -24547.87, -29806.59, -19026.61, -15499.88, -17528.60, -20679.19, -22809.91, -20829.86, 0.000, 0.000, 0.000, 10:48:33.015, 1583740113015
72, -25179.26, -29873.08, -19206.14, -15685.69, -18349.46, -20760.68, -23124.24, -21167.84, 0.000, 0.000, 0.000, 10:48:33.015, 1583740113015
73, -25331.03, -29877.11, -19272.68, -15738.85, -18578.81, -20774.76, -23175.21, -21273.96, 0.000, 0.000, 0.000, 10:48:33.015, 1583740113015
74, -24721.41, -29807.55, -19137.94, -15619.87, -17911.06, -20724.25, -22862.71, -20991.01, 0.000, 0.000, 0.000, 10:48:33.015, 1583740113015
75, -24211.07, -29760.38, -18995.50, -15498.74, -17281.97, -20675.88, -22628.64, -20720.89, 0.000, -0.020, 0.972, 10:48:33.016, 1583740113016
76, -24547.27, -29809.22, -19036.02, -15519.02, -17531.17, -20691.72, -22813.17, -20839.25, 0.000, 0.000, 0.000, 10:48:33.016, 1583740113016
77, -25176.24, -29866.09, -19214.14, -15693.85, -18347.92, -20767.32, -23122.74, -21171.50, 0.000, 0.000, 0.000, 10:48:33.016, 1583740113016
78, -25334.99, -29873.24, -19275.63, -15734.80, -18579.42, -20775.14, -23173.24, -21273.90, 0.000, 0.000, 0.000, 10:48:33.016, 1583740113016
79, -24722.84, -29792.79, -19136.04, -15612.60, -17909.13, -20720.36, -22856.40, -20984.71, 0.000, 0.000, 0.000, 10:48:33.016, 1583740113016
80, -24208.26, -29746.13, -18995.14, -15494.43, -17279.71, -20674.11, -22623.41, -20713.70, 0.000, 0.000, 0.000, 10:48:33.016, 1583740113016
81, -24537.65, -29804.17, -19030.86, -15508.13, -17522.34, -20685.64, -22804.72, -20830.08, 0.000, 0.000, 0.000, 10:48:33.016, 1583740113016
82, -25163.77, -29867.90, -19204.91, -15688.49, -18337.73, -20761.39, -23114.92, -21163.68, 0.000, 0.000, 0.000, 10:48:33.016, 1583740113016
83, -25329.71, -29879.39, -19266.78, -15738.85, -18575.10, -20770.87, -23170.58, -21270.39, 0.000, 0.000, 0.000, 10:48:33.017, 1583740113017
84, -24724.34, -29796.82, -19128.24, -15613.88, -17906.72, -20714.86, -22855.46, -20982.79, 0.000, 0.000, 0.000, 10:48:33.017, 1583740113017
85, -24206.25, -29749.01, -18985.37, -15488.39, -17273.56, -20666.56, -22618.76, -20710.66, 0.002, -0.020, 0.972, 10:48:33.017, 1583740113017
86, -24530.41, -29800.89, -19022.90, -15498.32, -17511.79, -20677.69, -22799.16, -20823.69, 0.000, 0.000, 0.000, 10:48:33.017, 1583740113017
87, -25158.94, -29862.91, -19200.80, -15678.52, -18328.27, -20754.09, -23110.27, -21156.28, 0.000, 0.000, 0.000, 10:48:33.017, 1583740113017
88, -25330.29, -29864.97, -19263.83, -15729.12, -18567.79, -20763.23, -23163.43, -21263.41, 0.000, 0.000, 0.000, 10:48:33.017, 1583740113017
89, -24726.26, -29788.73, -19121.60, -15599.82, -17899.52, -20703.39, -22847.66, -20975.48, 0.000, 0.000, 0.000, 10:48:33.018, 1583740113018
90, -24197.97, -29735.78, -18979.51, -15479.57, -17265.47, -20658.42, -22613.17, -20703.97, 0.000, 0.000, 0.000, 10:48:33.018, 1583740113018
91, -24530.70, -29797.67, -19023.99, -15504.71, -17508.37, -20681.85, -22802.11, -20824.49, 0.000, 0.000, 0.000, 10:48:33.018, 1583740113018
92, -25162.50, -29864.03, -19201.71, -15685.16, -18327.33, -20758.49, -23115.88, -21157.38, 0.000, 0.000, 0.000, 10:48:33.018, 1583740113018
93, -25335.30, -29865.15, -19268.30, -15734.82, -18575.95, -20768.97, -23175.45, -21268.22, 0.000, 0.000, 0.000, 10:48:33.018, 1583740113018
94, -24734.42, -29787.41, -19126.97, -15602.28, -17911.59, -20707.15, -22860.98, -20980.17, 0.000, 0.000, 0.000, 10:48:33.018, 1583740113018
95, -24206.89, -29744.31, -18982.31, -15476.39, -17272.87, -20657.08, -22618.65, -20705.25, 0.000, 0.000, 0.000, 10:48:33.019, 1583740113019
96, -24528.07, -29795.30, -19020.80, -15494.70, -17506.69, -20673.66, -22800.05, -20819.89, 0.004, -0.016, 0.974, 10:48:33.019, 1583740113019
97, -25163.41, -29866.89, -19203.34, -15685.65, -18331.49, -20760.30, -23117.76, -21160.75, 0.000, 0.000, 0.000, 10:48:33.019, 1583740113019
98, -25343.39, -29883.32, -19275.96, -15744.64, -18589.61, -20779.14, -23182.24, -21279.84, 0.000, 0.000, 0.000, 10:48:33.019, 1583740113019
99, -24748.28, -29811.21, -19144.65, -15625.05, -17936.18, -20728.58, -22878.28, -21001.77, 0.000, 0.000, 0.000, 10:48:33.019, 1583740113019
100, -24216.91, -29751.87, -18997.51, -15498.32, -17292.67, -20677.31, -22636.53, -20721.72, 0.000, 0.000, 0.000, 10:48:33.020, 1583740113020
101, -24530.90, -29798.21, -19029.47, -15500.26, -17517.11, -20682.81, -22811.70, -20826.60, 0.000, 0.000, 0.000, 10:48:33.020, 1583740113020
102, -25161.45, -29864.10, -19204.66, -15677.63, -18332.27, -20758.20, -23122.10, -21159.70, 0.000, 0.000, 0.000, 10:48:33.020, 1583740113020
103, -25346.70, -29880.39, -19279.85, -15739.18, -18593.74, -20777.73, -23187.10, -21279.13, 0.000, 0.000, 0.000, 10:48:33.020, 1583740113020
104, -24747.49, -29805.58, -19144.65, -15621.54, -17936.83, -20725.74, -22877.03, -20998.86, 0.000, 0.000, 0.000, 10:48:33.020, 1583740113020
105, -24215.59, -29751.87, -18994.76, -15496.89, -17290.82, -20673.82, -22631.34, -20716.91, 0.000, 0.000, 0.000, 10:48:33.475, 1583740113475
106, -24533.05, -29806.92, -19032.96, -15504.09, -17515.09, -20684.97, -22810.16, -20823.69, -0.004, -0.020, 0.976, 10:48:33.476, 1583740113476
107, -25157.98, -29861.37, -19206.00, -15671.28, -18329.64, -20754.89, -23120.85, -21151.52, 0.000, 0.000, 0.000, 10:48:33.476, 1583740113476
108, -25338.81, -29858.51, -19279.41, -15733.39, -18593.79, -20772.68, -23187.47, -21272.47, 0.000, 0.000, 0.000, 10:48:33.476, 1583740113476
109, -24748.95, -29788.30, -19153.43, -15626.55, -17944.36, -20728.72, -22885.79, -20999.89, 0.000, 0.000, 0.000, 10:48:33.476, 1583740113476
110, -24210.07, -29746.79, -19005.96, -15500.42, -17294.57, -20676.73, -22638.34, -20717.03, 0.000, 0.000, 0.000, 10:48:33.477, 1583740113477
111, -24517.05, -29805.29, -19031.57, -15494.27, -17507.65, -20677.73, -22807.29, -20815.38, 0.000, 0.000, 0.000, 10:48:33.477, 1583740113477
112, -25146.92, -29861.19, -19206.03, -15669.38, -18322.19, -20752.43, -23120.96, -21147.81, 0.000, 0.000, 0.000, 10:48:33.477, 1583740113477
113, -25333.00, -29864.41, -19275.88, -15728.27, -18588.09, -20767.81, -23185.58, -21267.82, 0.000, 0.000, 0.000, 10:48:33.477, 1583740113477
114, -24747.96, -29794.90, -19146.75, -15618.35, -17942.57, -20722.08, -22883.40, -20996.69, 0.000, 0.000, 0.000, 10:48:33.477, 1583740113477
115, -24211.77, -29742.28, -19003.32, -15502.30, -17295.98, -20676.97, -22638.94, -20720.31, 0.000, 0.000, 0.000, 10:48:33.478, 1583740113478
116, -24516.55, -29794.54, -19035.19, -15511.39, -17508.84, -20688.01, -22808.88, -20824.74, -0.006, -0.022, 0.972, 10:48:33.478, 1583740113478
117, -25149.27, -29861.86, -19214.59, -15690.68, -18326.02, -20766.11, -23123.08, -21159.99, 0.000, 0.000, 0.000, 10:48:33.482, 1583740113482
118, -25338.76, -29875.16, -19279.09, -15732.48, -18589.52, -20771.12, -23187.01, -21274.66, 0.000, 0.000, 0.000, 10:48:33.482, 1583740113482
119, -24747.61, -29797.22, -19140.22, -15608.49, -17937.34, -20713.07, -22876.72, -20992.98, 0.000, 0.000, 0.000, 10:48:33.483, 1583740113483
120, -24209.40, -29735.87, -18991.56, -15483.68, -17283.40, -20662.55, -22627.36, -20709.36, 0.000, 0.000, 0.000, 10:48:33.483, 1583740113483
121, -24517.98, -29789.33, -19021.54, -15486.81, -17491.69, -20669.82, -22797.48, -20808.85, 0.000, 0.000, 0.000, 10:48:33.483, 1583740113483
122, -25150.74, -29854.46, -19201.62, -15668.86, -18310.86, -20748.47, -23113.56, -21144.57, 0.000, 0.000, 0.000, 10:48:33.483, 1583740113483
123, -25347.93, -29878.94, -19280.48, -15738.64, -18592.74, -20773.02, -23190.20, -21276.76, 0.000, 0.000, 0.000, 10:48:33.483, 1583740113483
124, -24758.87, -29803.70, -19143.87, -15619.67, -17945.19, -20719.93, -22881.39, -21000.27, 0.000, 0.000, 0.000, 10:48:33.484, 1583740113484
125, -24215.97, -29748.07, -19001.78, -15494.47, -17293.23, -20672.81, -22633.58, -20718.26, 0.000, 0.000, 0.000, 10:48:33.484, 1583740113484
126, -24516.22, -29806.03, -19032.98, -15496.84, -17501.39, -20681.60, -22803.27, -20818.44, -0.004, -0.020, 0.968, 10:48:33.484, 1583740113484
127, -25147.05, -29861.79, -19207.43, -15672.44, -18315.67, -20755.34, -23117.29, -21150.47, 0.000, 0.000, 0.000, 10:48:33.484, 1583740113484
128, -25348.33, -29872.30, -19281.38, -15740.03, -18598.89, -20776.62, -23191.97, -21281.12, 0.000, 0.000, 0.000, 10:48:33.484, 1583740113484
129, -24764.03, -29794.56, -19144.87, -15618.91, -17953.23, -20721.45, -22885.48, -21005.97, 0.000, 0.000, 0.000, 10:48:33.485, 1583740113485
130, -24218.11, -29738.99, -18997.66, -15487.48, -17292.70, -20667.74, -22634.25, -20718.44, 0.000, 0.000, 0.000, 10:48:33.485, 1583740113485
131, -24514.34, -29796.10, -19025.92, -15488.91, -17490.20, -20674.18, -22799.85, -20814.53, 0.000, 0.000, 0.000, 10:48:33.485, 1583740113485
132, -25144.71, -29860.88, -19203.14, -15670.79, -18307.33, -20753.48, -23114.27, -21150.16, 0.000, 0.000, 0.000, 10:48:33.485, 1583740113485
133, -25349.60, -29877.31, -19279.43, -15737.39, -18595.49, -20774.76, -23188.91, -21280.85, 0.000, 0.000, 0.000, 10:48:33.485, 1583740113485
134, -24772.04, -29809.09, -19145.36, -15616.20, -17953.64, -20720.54, -22886.20, -21006.77, 0.000, 0.000, 0.000, 10:48:33.485, 1583740113485
135, -24228.04, -29753.86, -18998.07, -15489.58, -17294.46, -20671.81, -22635.37, -20723.44, 0.000, 0.000, 0.000, 10:48:33.485, 1583740113485
136, -24527.46, -29813.16, -19032.11, -15504.02, -17496.01, -20689.87, -22807.79, -20827.82, -0.002, -0.018, 0.968, 10:48:33.485, 1583740113485
137, -25161.74, -29883.77, -19210.27, -15686.03, -18312.36, -20767.36, -23122.88, -21160.93, 0.000, 0.000, 0.000, 10:48:33.486, 1583740113486
138, -25370.99, -29900.51, -19289.24, -15748.88, -18603.71, -20784.28, -23198.70, -21290.19, 0.000, 0.000, 0.000, 10:48:33.486, 1583740113486
139, -24794.32, -29824.20, -19152.07, -15625.32, -17959.02, -20725.65, -22890.13, -21012.99, 0.000, 0.000, 0.000, 10:48:33.486, 1583740113486
140, -24254.08, -29786.25, -19002.65, -15490.70, -17297.70, -20672.81, -22637.71, -20725.30, 0.000, 0.000, 0.000, 10:48:33.486, 1583740113486
141, -24554.82, -29855.18, -19030.81, -15493.74, -17492.92, -20682.65, -22804.52, -20820.92, 0.000, 0.000, 0.000, 10:48:33.486, 1583740113486
142, -25193.16, -29927.11, -19209.45, -15673.13, -18312.87, -20762.13, -23122.39, -21159.08, 0.000, 0.000, 0.000, 10:48:33.486, 1583740113486
143, -25419.05, -29950.31, -19288.75, -15739.70, -18610.40, -20781.29, -23200.42, -21291.78, 0.000, 0.000, 0.000, 10:48:33.486, 1583740113486
144, -24859.52, -29896.55, -19161.17, -15628.05, -17975.85, -20731.89, -22901.02, -21022.69, 0.000, 0.000, 0.000, 10:48:33.486, 1583740113486
145, -24318.90, -29854.58, -19019.41, -15509.18, -17316.75, -20689.22, -22653.31, -20740.07, 0.000, 0.000, 0.000, 10:48:33.487, 1583740113487
146, -24614.99, -29916.29, -19043.84, -15507.89, -17499.98, -20694.72, -22813.38, -20829.46, 0.002, -0.014, 0.966, 10:48:33.487, 1583740113487
147, -25275.08, -30007.46, -19220.87, -15681.74, -18316.63, -20770.18, -23130.63, -21163.79, 0.000, 0.000, 0.000, 10:48:33.487, 1583740113487
148, -25507.56, -30045.68, -19299.63, -15748.50, -18618.31, -20788.96, -23210.88, -21296.03, 0.000, 0.000, 0.000, 10:48:33.487, 1583740113487
149, -24952.93, -29996.15, -19171.02, -15638.84, -17986.02, -20740.99, -22914.25, -21031.96, 0.000, 0.000, 0.000, 10:48:33.487, 1583740113487
150, -24424.73, -29966.80, -19030.63, -15523.33, -17329.08, -20701.78, -22669.05, -20755.07, 0.000, 0.000, 0.000, 10:48:33.487, 1583740113487
151, -24713.38, -30030.06, -19052.16, -15521.70, -17507.36, -20705.63, -22827.21, -20841.35, 0.000, 0.000, 0.000, 10:48:33.488, 1583740113488
152, -25358.84, -30115.98, -19220.53, -15683.68, -18315.85, -20771.12, -23139.44, -21167.39, 0.000, 0.000, 0.000, 10:48:33.488, 1583740113488
153, -25587.05, -30156.84, -19298.52, -15747.54, -18619.27, -20789.51, -23220.38, -21302.46, 0.000, 0.000, 0.000, 10:48:33.488, 1583740113488
154, -25020.65, -30086.50, -19172.59, -15637.57, -17994.29, -20742.02, -22924.22, -21038.96, 0.000, 0.000, 0.000, 10:48:33.488, 1583740113488
155, -24469.84, -30039.98, -19025.33, -15512.98, -17326.78, -20695.28, -22671.44, -20752.57, 0.000, 0.000, 0.000, 10:48:33.488, 1583740113488
156, -24756.59, -30101.63, -19046.19, -15510.34, -17500.21, -20700.29, -22827.30, -20838.75, 0.004, -0.014, 0.968, 10:48:33.488, 1583740113488
157, -25395.74, -30170.72, -19224.44, -15689.56, -18317.63, -20779.03, -23142.68, -21174.19, 0.000, 0.000, 0.000, 10:48:33.488, 1583740113488
158, -25620.22, -30184.49, -19310.59, -15762.00, -18631.07, -20803.53, -23229.47, -21314.64, 0.000, 0.000, 0.000, 10:48:33.489, 1583740113489
159, -25058.90, -30126.93, -19181.78, -15650.04, -18004.13, -20753.73, -22932.75, -21049.24, 0.000, 0.000, 0.000, 10:48:33.489, 1583740113489
160, -24496.15, -30073.58, -19033.09, -15527.55, -17335.23, -20706.72, -22677.03, -20760.77, 0.000, 0.000, 0.000, 10:48:33.489, 1583740113489
161, -24772.26, -30115.13, -19053.45, -15520.47, -17506.87, -20709.36, -22832.44, -20844.01, 0.000, 0.000, 0.000, 10:48:33.489, 1583740113489
162, -25405.28, -30179.95, -19226.10, -15691.26, -18319.27, -20782.12, -23143.51, -21171.39, 0.000, 0.000, 0.000, 10:48:33.489, 1583740113489
163, -25640.02, -30208.36, -19319.24, -15778.32, -18641.78, -20814.66, -23235.24, -21320.75, 0.000, 0.000, 0.000, 10:48:33.489, 1583740113489
164, -25066.36, -30136.07, -19181.33, -15643.23, -18005.36, -20746.15, -22929.11, -21042.47, 0.000, 0.000, 0.000, 10:48:33.489, 1583740113489
165, -24500.75, -30076.89, -19023.28, -15497.63, -17324.48, -20683.16, -22664.80, -20740.67, 0.000, 0.000, 0.000, 10:48:33.489, 1583740113489
166, -24772.35, -30125.72, -19044.96, -15502.03, -17491.74, -20693.83, -22821.18, -20828.56, -0.002, -0.014, 0.972, 10:48:33.489, 1583740113489
167, -25414.33, -30197.05, -19222.21, -15682.14, -18305.99, -20774.09, -23138.90, -21163.28, 0.000, 0.000, 0.000, 10:48:33.490, 1583740113490
168, -25648.25, -30214.77, -19310.43, -15757.89, -18627.63, -20800.33, -23230.50, -21308.77, 0.000, 0.000, 0.000, 10:48:33.490, 1583740113490
169, -25088.67, -30144.79, -19184.39, -15648.97, -18008.26, -20751.40, -22937.92, -21048.44, 0.000, 0.000, 0.000, 10:48:33.490, 1583740113490
170, -24510.74, -30084.08, -19028.44, -15518.06, -17330.34, -20697.07, -22671.04, -20752.79, 0.000, 0.000, 0.000, 10:48:33.490, 1583740113490
171, -24784.87, -30145.26, -19050.75, -15513.05, -17494.35, -20703.88, -22824.51, -20835.60, 0.000, 0.000, 0.000, 10:48:33.490, 1583740113490
172, -25426.72, -30219.60, -19226.21, -15691.13, -18308.80, -20780.84, -23138.73, -21168.82, 0.000, 0.000, 0.000, 10:48:33.490, 1583740113490
173, -25659.11, -30236.81, -19307.19, -15756.46, -18628.26, -20798.21, -23224.18, -21307.63, 0.000, 0.000, 0.000, 10:48:33.490, 1583740113490
174, -25095.87, -30161.94, -19181.75, -15641.28, -18010.14, -20748.05, -22930.23, -21047.10, 0.000, 0.000, 0.000, 10:48:33.490, 1583740113490
175, -24522.79, -30104.00, -19029.09, -15515.40, -17329.89, -20698.12, -22666.46, -20752.95, 0.000, 0.000, 0.000, 10:48:33.491, 1583740113491
176, -24790.23, -30149.62, -19046.72, -15509.79, -17485.99, -20701.69, -22816.01, -20829.79, 0.000, -0.014, 0.966, 10:48:33.491, 1583740113491
177, -25434.43, -30224.41, -19222.75, -15682.86, -18300.78, -20778.23, -23133.16, -21163.12, 0.000, 0.000, 0.000, 10:48:33.491, 1583740113491
178, -25669.57, -30242.40, -19300.93, -15747.29, -18624.52, -20795.75, -23216.87, -21305.48, 0.000, 0.000, 0.000, 10:48:33.491, 1583740113491
179, -25111.40, -30173.49, -19174.38, -15636.34, -18010.74, -20746.91, -22923.99, -21045.26, 0.000, 0.000, 0.000, 10:48:33.491, 1583740113491
180, -24534.46, -30113.48, -19027.86, -15514.81, -17335.19, -20700.64, -22663.71, -20752.86, 0.000, 0.000, 0.000, 10:48:33.491, 1583740113491
181, -24793.83, -30164.95, -19046.35, -15511.31, -17488.99, -20705.18, -22813.69, -20831.47, 0.000, 0.000, 0.000, 10:48:33.491, 1583740113491
182, -25434.74, -30227.11, -19223.17, -15690.61, -18301.52, -20785.71, -23133.12, -21166.81, 0.000, 0.000, 0.000, 10:48:33.492, 1583740113492
183, -25676.43, -30249.89, -19315.62, -15773.33, -18639.23, -20817.16, -23232.16, -21321.80, 0.000, 0.000, 0.000, 10:48:33.492, 1583740113492
184, -25126.33, -30192.22, -19189.06, -15659.39, -18023.69, -20763.67, -22939.28, -21061.98, 0.000, 0.000, 0.000, 10:48:33.492, 1583740113492
185, -24548.90, -30129.64, -19027.19, -15518.08, -17332.53, -20701.58, -22665.32, -20756.03, 0.000, 0.000, 0.000, 10:48:33.492, 1583740113492
186, -24794.90, -30162.02, -19035.17, -15496.29, -17473.97, -20694.36, -22807.18, -20823.35, 0.000, 0.000, 0.000, 10:48:33.492, 1583740113492
187, -25442.77, -30238.69, -19215.30, -15671.39, -18292.04, -20773.91, -23130.54, -21158.83, 0.002, -0.014, 0.970, 10:48:33.494, 1583740113494
188, -25687.45, -30261.06, -19309.80, -15753.71, -18634.22, -20805.21, -23230.50, -21314.42, 0.000, 0.000, 0.000, 10:48:33.495, 1583740113495
189, -25132.64, -30194.34, -19186.09, -15641.64, -18023.40, -20753.06, -22938.95, -21054.69, 0.000, 0.000, 0.000, 10:48:33.495, 1583740113495
190, -24556.05, -30137.68, -19033.00, -15515.37, -17340.35, -20703.24, -22672.07, -20758.29, 0.000, 0.000, 0.000, 10:48:33.495, 1583740113495
191, -24809.63, -30177.89, -19049.03, -15508.44, -17484.23, -20707.57, -22817.08, -20832.18, 0.000, 0.000, 0.000, 10:48:33.495, 1583740113495
192, -25446.34, -30243.21, -19223.42, -15690.19, -18292.96, -20787.66, -23133.96, -21166.90, 0.000, 0.000, 0.000, 10:48:33.495, 1583740113495
193, -25695.99, -30265.63, -19313.76, -15772.24, -18635.16, -20814.95, -23230.19, -21319.09, 0.000, 0.000, 0.000, 10:48:33.495, 1583740113495
194, -25136.03, -30185.47, -19183.76, -15648.59, -18022.99, -20754.51, -22935.17, -21053.80, 0.000, 0.000, 0.000, 10:48:33.496, 1583740113496
195, -24552.03, -30126.17, -19026.07, -15504.69, -17333.80, -20693.96, -22664.62, -20750.06, 0.000, 0.000, 0.000, 10:48:33.496, 1583740113496
196, -24805.00, -30181.60, -19042.57, -15493.07, -17475.69, -20694.90, -22810.36, -20823.94, 0.000, 0.000, 0.000, 10:48:33.496, 1583740113496
197, -25435.77, -30237.77, -19211.30, -15665.53, -18280.91, -20769.44, -23123.30, -21152.95, 0.002, -0.016, 0.974, 10:48:33.496, 1583740113496
198, -25682.94, -30243.27, -19297.54, -15739.96, -18623.05, -20791.19, -23218.81, -21300.70, 0.000, 0.000, 0.000, 10:48:33.496, 1583740113496
199, -25141.62, -30185.34, -19174.55, -15627.83, -18021.59, -20739.22, -22932.22, -21044.55, 0.000, 0.000, 0.000, 10:48:33.496, 1583740113496
200, -24558.80, -30127.40, -19022.36, -15503.15, -17332.08, -20689.94, -22662.21, -20746.42, 0.000, 0.000, 0.000, 10:48:33.496, 1583740113496
201, -24809.74, -30172.78, -19040.98, -15502.32, -17469.14, -20699.32, -22808.39, -20822.95, 0.000, 0.000, 0.000, 10:48:33.496, 1583740113496
202, -25444.44, -30249.87, -19213.27, -15676.75, -18278.79, -20775.41, -23124.58, -21153.11, 0.000, 0.000, 0.000, 10:48:33.497, 1583740113497
203, -25687.45, -30262.25, -19300.19, -15750.76, -18626.96, -20797.49, -23221.16, -21304.25, 0.000, 0.000, 0.000, 10:48:33.497, 1583740113497
204, -25142.36, -30179.46, -19178.58, -15636.94, -18025.99, -20746.64, -22936.06, -21050.78, 0.000, 0.000, 0.000, 10:48:33.497, 1583740113497
205, -24557.14, -30127.27, -19034.32, -15518.01, -17345.74, -20705.22, -22674.30, -20760.32, 0.000, 0.000, 0.000, 10:48:33.497, 1583740113497
206, -24783.30, -30160.55, -19042.59, -15506.10, -17472.36, -20703.04, -22808.63, -20824.02, 0.000, 0.000, 0.000, 10:48:33.497, 1583740113497
207, -25414.13, -30218.04, -19208.24, -15668.39, -18274.25, -20769.62, -23118.10, -21147.05, 0.002, -0.016, 0.974, 10:48:33.498, 1583740113498
208, -25663.06, -30231.92, -19294.72, -15739.63, -18626.07, -20788.71, -23215.79, -21297.23, 0.000, 0.000, 0.000, 10:48:33.498, 1583740113498
209, -25113.70, -30152.68, -19171.40, -15627.94, -18027.38, -20735.67, -22930.12, -21041.35, 0.000, 0.000, 0.000, 10:48:33.498, 1583740113498
210, -24523.93, -30089.78, -19025.78, -15513.94, -17340.73, -20695.97, -22665.92, -20749.77, 0.000, 0.000, 0.000, 10:48:33.498, 1583740113498
211, -24759.43, -30125.05, -19043.75, -15512.60, -17472.94, -20705.94, -22809.48, -20822.95, 0.000, 0.000, 0.000, 10:48:33.498, 1583740113498
212, -25382.51, -30163.30, -19204.37, -15659.70, -18269.04, -20763.65, -23116.66, -21138.33, 0.000, 0.000, 0.000, 10:48:33.498, 1583740113498
213, -25622.61, -30165.67, -19286.27, -15726.44, -18619.81, -20776.48, -23211.01, -21285.16, 0.000, 0.000, 0.000, 10:48:33.498, 1583740113498
214, -25072.26, -30101.41, -19169.79, -15629.97, -18030.06, -20734.08, -22928.33, -21039.16, 0.000, 0.000, 0.000, 10:48:33.498, 1583740113498
215, -24477.64, -30041.28, -19015.77, -15495.59, -17332.35, -20681.64, -22654.95, -20735.87, 0.000, 0.000, 0.000, 10:48:33.499, 1583740113499
216, -24706.66, -30078.43, -19025.56, -15477.06, -17452.40, -20678.58, -22790.11, -20798.10, 0.000, 0.000, 0.000, 10:48:33.499, 1583740113499
217, -25328.08, -30128.52, -19197.22, -15652.77, -18258.02, -20755.07, -23105.91, -21128.50, 0.000, -0.014, 0.970, 10:48:33.499, 1583740113499
218, -25585.17, -30142.94, -19295.70, -15745.28, -18624.86, -20790.07, -23219.04, -21295.82, 0.000, 0.000, 0.000, 10:48:33.499, 1583740113499
219, -25038.13, -30064.50, -19167.65, -15624.81, -18025.88, -20730.97, -22929.22, -21037.97, 0.000, 0.000, 0.000, 10:48:33.499, 1583740113499
220, -24433.21, -30003.44, -19005.31, -15481.35, -17319.81, -20670.78, -22645.49, -20727.49, 0.000, 0.000, 0.000, 10:48:33.499, 1583740113499
221, -24658.58, -30040.54, -19020.53, -15473.31, -17441.38, -20677.40, -22783.40, -20795.03, 0.000, 0.000, 0.000, 10:48:33.500, 1583740113500
222, -25286.08, -30090.45, -19195.59, -15650.89, -18250.18, -20755.81, -23102.67, -21126.40, 0.000, 0.000, 0.000, 10:48:33.500, 1583740113500
223, -25548.67, -30100.67, -19290.31, -15736.16, -18618.91, -20783.99, -23211.10, -21288.54, 0.000, 0.000, 0.000, 10:48:33.500, 1583740113500
224, -25010.73, -30033.84, -19171.38, -15629.66, -18031.40, -20733.99, -22927.50, -21040.26, 0.000, 0.000, 0.000, 10:48:33.500, 1583740113500
225, -24402.61, -29955.09, -19010.13, -15492.64, -17326.49, -20674.04, -22644.91, -20730.15, 0.000, 0.000, 0.000, 10:48:33.959, 1583740113959
226, -24619.24, -29985.58, -19016.93, -15474.83, -17436.53, -20671.83, -22776.96, -20789.42, 0.000, 0.000, 0.000, 10:48:33.960, 1583740113960
227, -25249.51, -30052.19, -19187.45, -15644.10, -18238.96, -20746.96, -23092.70, -21118.08, 0.002, -0.018, 0.968, 10:48:33.960, 1583740113960
228, -25511.10, -30069.71, -19278.47, -15730.75, -18608.41, -20774.36, -23199.23, -21280.69, 0.000, 0.000, 0.000, 10:48:33.960, 1583740113960
229, -24974.32, -29990.65, -19155.82, -15627.40, -18023.98, -20727.46, -22918.85, -21036.77, 0.000, 0.000, 0.000, 10:48:33.961, 1583740113961
230, -24354.59, -29910.25, -18994.87, -15489.78, -17315.65, -20668.77, -22635.32, -20725.12, 0.000, 0.000, 0.000, 10:48:33.961, 1583740113961
231, -24566.89, -29943.42, -19005.98, -15464.14, -17423.45, -20666.31, -22768.04, -20782.00, 0.000, 0.000, 0.000, 10:48:33.961, 1583740113961
232, -25204.65, -30008.40, -19184.12, -15640.07, -18233.32, -20745.59, -23089.33, -21112.74, 0.000, 0.000, 0.000, 10:48:33.961, 1583740113961
233, -25471.94, -30018.48, -19286.52, -15734.73, -18614.38, -20778.90, -23200.69, -21280.31, 0.000, 0.000, 0.000, 10:48:33.961, 1583740113961
234, -24932.86, -29940.18, -19165.88, -15621.99, -18028.80, -20723.20, -22917.71, -21028.34, 0.000, 0.000, 0.000, 10:48:33.961, 1583740113961
235, -24319.55, -29866.13, -19009.62, -15496.33, -17324.99, -20671.96, -22637.42, -20722.44, 0.000, 0.000, 0.000, 10:48:33.962, 1583740113962
236, -24542.48, -29911.80, -19021.29, -15485.67, -17434.74, -20679.10, -22772.72, -20787.12, 0.000, 0.000, 0.000, 10:48:33.962, 1583740113962
237, -25160.93, -29967.63, -19177.71, -15636.52, -18225.86, -20737.75, -23077.30, -21100.27, 0.002, -0.016, 0.966, 10:48:33.965, 1583740113965
238, -25418.74, -29966.20, -19266.55, -15713.10, -18598.69, -20756.07, -23180.86, -21258.25, 0.000, 0.000, 0.000, 10:48:33.965, 1583740113965
239, -24892.40, -29896.57, -19146.93, -15603.66, -18015.93, -20705.07, -22902.00, -21013.97, 0.000, 0.000, 0.000, 10:48:33.966, 1583740113966
240, -24285.71, -29826.46, -18992.61, -15477.67, -17313.15, -20657.39, -22624.19, -20708.51, 0.000, 0.000, 0.000, 10:48:33.966, 1583740113966
241, -24497.13, -29864.63, -19003.70, -15463.29, -17413.73, -20659.92, -22753.67, -20766.65, 0.000, 0.000, 0.000, 10:48:33.966, 1583740113966
242, -25121.28, -29924.27, -19166.20, -15627.53, -18206.14, -20726.48, -23060.99, -21085.25, 0.000, 0.000, 0.000, 10:48:33.966, 1583740113966
243, -25385.37, -29935.29, -19257.68, -15709.83, -18586.77, -20749.93, -23168.34, -21250.27, 0.000, 0.000, 0.000, 10:48:33.966, 1583740113966
244, -24855.47, -29858.51, -19141.56, -15600.94, -18012.80, -20700.44, -22893.97, -21010.08, 0.000, 0.000, 0.000, 10:48:33.966, 1583740113966
245, -24256.22, -29790.61, -18992.50, -15482.56, -17311.67, -20658.76, -22622.40, -20713.29, 0.000, 0.000, 0.000, 10:48:33.967, 1583740113967
246, -24472.32, -29829.05, -19004.28, -15470.69, -17410.27, -20663.96, -22756.44, -20772.97, 0.000, 0.000, 0.000, 10:48:33.967, 1583740113967
247, -25097.57, -29891.79, -19170.78, -15627.85, -18207.31, -20730.59, -23068.94, -21093.45, 0.006, -0.022, 0.972, 10:48:33.967, 1583740113967
248, -25386.48, -29913.09, -19279.43, -15728.83, -18608.63, -20771.30, -23195.43, -21274.93, 0.000, 0.000, 0.000, 10:48:33.967, 1583740113967
249, -24843.67, -29824.24, -19152.90, -15610.06, -18025.50, -20709.87, -22909.64, -21021.12, 0.000, 0.000, 0.000, 10:48:33.967, 1583740113967
250, -24224.22, -29756.92, -18989.30, -15466.42, -17308.77, -20647.49, -22617.82, -20702.16, 0.000, 0.000, 0.000, 10:48:33.968, 1583740113968
251, -24440.20, -29802.74, -19007.28, -15456.92, -17407.29, -20656.28, -22755.33, -20763.41, 0.000, 0.000, 0.000, 10:48:33.968, 1583740113968
252, -25062.65, -29854.42, -19173.91, -15623.18, -18202.34, -20725.50, -23067.00, -21084.38, 0.000, 0.000, 0.000, 10:48:33.968, 1583740113968
253, -25320.23, -29854.71, -19256.18, -15701.70, -18581.92, -20740.70, -23167.04, -21239.01, 0.000, 0.000, 0.000, 10:48:33.968, 1583740113968
254, -24832.27, -29800.26, -19161.81, -15619.55, -18033.41, -20715.46, -22916.84, -21023.76, 0.000, 0.000, 0.000, 10:48:33.968, 1583740113968
255, -24231.64, -29747.67, -19007.83, -15492.51, -17325.89, -20667.12, -22635.50, -20719.75, 0.000, 0.000, 0.000, 10:48:33.968, 1583740113968
0, -24440.67, -29804.40, -19015.90, -15476.46, -17414.85, -20669.30, -22761.83, -20774.87, 0.000, 0.000, 0.000, 10:48:33.969, 1583740113969
1, -25054.27, -29849.79, -19173.50, -15628.25, -18199.75, -20729.77, -23064.14, -21087.78, 0.006, -0.018, 0.970, 10:48:33.969, 1583740113969
2, -25323.90, -29852.18, -19263.72, -15707.73, -18588.63, -20750.58, -23171.87, -21250.38, 0.000, 0.000, 0.000, 10:48:33.969, 1583740113969
3, -24827.62, -29802.34, -19149.99, -15608.42, -18026.03, -20705.83, -22903.36, -21018.60, 0.000, 0.000, 0.000, 10:48:33.969, 1583740113969
4, -24221.47, -29742.44, -18990.98, -15477.46, -17308.56, -20653.32, -22617.37, -20707.21, 0.000, 0.000, 0.000, 10:48:33.969, 1583740113969
5, -24419.32, -29778.71, -18990.82, -15451.58, -17383.87, -20648.36, -22737.89, -20753.97, 0.000, 0.000, 0.000, 10:48:33.969, 1583740113969
6, -25043.16, -29835.67, -19153.84, -15613.86, -18176.84, -20716.80, -23048.58, -21075.93, 0.000, 0.000, 0.000, 10:48:33.969, 1583740113969
7, -25341.07, -29870.33, -19265.73, -15713.48, -18592.40, -20757.06, -23180.97, -21259.64, 0.000, 0.000, 0.000, 10:48:33.970, 1583740113970
8, -24835.96, -29808.11, -19157.50, -15614.35, -18034.59, -20713.29, -22917.11, -21028.56, 0.000, 0.000, 0.000, 10:48:33.970, 1583740113970
9, -24221.45, -29738.79, -19004.66, -15496.40, -17323.45, -20671.32, -22630.34, -20725.61, 0.000, 0.000, 0.000, 10:48:33.970, 1583740113970
10, -24414.72, -29775.58, -19005.06, -15478.22, -17399.78, -20671.07, -22745.96, -20769.53, 0.000, 0.000, 0.000, 10:48:33.970, 1583740113970
11, -25056.55, -29850.96, -19179.14, -15642.67, -18205.41, -20745.95, -23071.07, -21097.12, -0.002, -0.020, 0.970, 10:48:33.970, 1583740113970
12, -25350.05, -29868.23, -19285.51, -15733.01, -18619.43, -20778.27, -23199.01, -21275.73, 0.000, 0.000, 0.000, 10:48:33.971, 1583740113971
13, -24832.94, -29791.21, -19166.42, -15617.23, -18051.71, -20718.70, -22918.49, -21030.91, 0.000, 0.000, 0.000, 10:48:33.971, 1583740113971
14, -24226.76, -29733.79, -19012.35, -15491.57, -17341.51, -20671.72, -22641.18, -20722.48, 0.000, 0.000, 0.000, 10:48:33.971, 1583740113971
15, -24416.06, -29767.47, -19010.81, -15463.09, -17405.08, -20662.42, -22751.62, -20760.12, 0.000, 0.000, 0.000, 10:48:33.971, 1583740113971
16, -25037.06, -29827.75, -19178.94, -15627.38, -18194.81, -20731.44, -23059.87, -21078.23, 0.000, 0.000, 0.000, 10:48:33.971, 1583740113971
17, -25338.27, -29867.79, -19290.76, -15730.02, -18614.91, -20772.10, -23194.00, -21264.13, 0.000, 0.000, 0.000, 10:48:33.971, 1583740113971
18, -24827.49, -29789.78, -19171.92, -15625.75, -18052.83, -20720.40, -22918.38, -21026.31, 0.000, 0.000, 0.000, 10:48:33.972, 1583740113972
19, -24221.27, -29722.59, -19024.02, -15514.95, -17345.80, -20685.18, -22642.43, -20729.05, 0.000, 0.000, 0.000, 10:48:33.972, 1583740113972
20, -24404.10, -29760.10, -19018.07, -15474.13, -17406.20, -20671.32, -22755.19, -20764.14, 0.000, 0.000, 0.000, 10:48:33.972, 1583740113972
21, -25021.77, -29832.18, -19172.45, -15617.52, -18184.66, -20726.04, -23053.79, -21070.59, 0.000, 0.000, 0.000, 10:48:33.972, 1583740113972
22, -25321.37, -29851.00, -19281.46, -15720.67, -18604.83, -20764.79, -23180.90, -21255.03, 0.002, -0.022, 0.974, 10:48:33.972, 1583740113972
23, -24827.45, -29785.53, -19170.80, -15622.06, -18054.89, -20719.78, -22916.62, -21026.35, 0.000, 0.000, 0.000, 10:48:33.973, 1583740113973
24, -24212.64, -29719.24, -19011.54, -15490.65, -17334.80, -20668.84, -22631.28, -20714.61, 0.000, 0.000, 0.000, 10:48:33.973, 1583740113973
25, -24409.47, -29769.15, -19014.43, -15470.27, -17399.07, -20671.38, -22752.89, -20762.96, 0.000, 0.000, 0.000, 10:48:33.973, 1583740113973
26, -25024.03, -29828.27, -19175.16, -15630.44, -18185.80, -20736.61, -23056.63, -21076.13, 0.000, 0.000, 0.000, 10:48:33.973, 1583740113973
27, -25330.56, -29854.71, -19291.21, -15739.34, -18619.18, -20781.47, -23192.53, -21269.16, 0.000, 0.000, 0.000, 10:48:33.973, 1583740113973
28, -24834.71, -29788.91, -19184.35, -15637.86, -18074.96, -20735.76, -22933.36, -21041.04, 0.000, 0.000, 0.000, 10:48:33.974, 1583740113974
29, -24209.26, -29714.83, -19023.39, -15504.47, -17349.96, -20682.49, -22640.15, -20726.12, 0.000, 0.000, 0.000, 10:48:33.974, 1583740113974
30, -24391.81, -29759.92, -19019.57, -15476.62, -17404.54, -20676.77, -22748.91, -20762.58, 0.000, 0.000, 0.000, 10:48:33.974, 1583740113974
31, -25025.21, -29828.71, -19189.84, -15647.72, -18201.92, -20752.54, -23067.09, -21088.31, 0.000, 0.000, 0.000, 10:48:33.974, 1583740113974
32, -25328.06, -29842.44, -19293.06, -15743.76, -18623.88, -20782.25, -23191.48, -21267.51, 0.002, -0.020, 0.976, 10:48:33.974, 1583740113974
33, -24847.58, -29786.98, -19189.22, -15645.57, -18085.36, -20737.68, -22936.60, -21046.94, 0.000, 0.000, 0.000, 10:48:33.975, 1583740113975
34, -24223.10, -29726.34, -19027.23, -15505.02, -17357.72, -20681.04, -22646.14, -20730.88, 0.000, 0.000, 0.000, 10:48:33.975, 1583740113975
35, -24402.61, -29765.95, -19026.74, -15473.08, -17411.20, -20677.24, -22764.18, -20770.34, 0.000, 0.000, 0.000, 10:48:33.975, 1583740113975
36, -25009.95, -29812.73, -19177.77, -15617.54, -18183.66, -20730.44, -23058.37, -21071.97, 0.000, 0.000, 0.000, 10:48:33.975, 1583740113975
37, -25320.57, -29846.26, -19286.89, -15722.40, -18614.20, -20767.47, -23187.27, -21258.36, 0.000, 0.000, 0.000, 10:48:33.975, 1583740113975
38, -24842.31, -29783.23, -19185.04, -15633.68, -18083.48, -20729.41, -22937.49, -21043.36, 0.000, 0.000, 0.000, 10:48:33.976, 1583740113976
39, -24215.70, -29707.50, -19027.39, -15500.29, -17357.16, -20675.77, -22645.07, -20725.81, 0.000, 0.000, 0.000, 10:48:33.976, 1583740113976
40, -24394.38, -29770.94, -19025.18, -15469.44, -17407.70, -20672.01, -22755.80, -20763.32, 0.000, 0.000, 0.000, 10:48:33.976, 1583740113976
41, -25005.37, -29816.42, -19174.20, -15614.66, -18180.17, -20727.38, -23051.26, -21068.51, 0.000, 0.000, 0.000, 10:48:33.976, 1583740113976
42, -25318.31, -29842.91, -19285.15, -15721.52, -18617.42, -20768.50, -23187.39, -21260.55, 0.004, -0.022, 0.970, 10:48:33.976, 1583740113976
43, -24841.75, -29787.77, -19185.06, -15628.70, -18087.34, -20728.76, -22937.63, -21043.92, 0.000, 0.000, 0.000, 10:48:33.976, 1583740113976
44, -24218.18, -29720.38, -19025.45, -15496.33, -17358.28, -20676.84, -22648.66, -20729.28, 0.000, 0.000, 0.000, 10:48:33.977, 1583740113977
45, -24393.73, -29759.92, -19018.88, -15463.27, -17400.74, -20671.38, -22757.34, -20763.21, 0.000, 0.000, 0.000, 10:48:33.977, 1583740113977
46, -25019.71, -29819.10, -19185.11, -15629.43, -18188.04, -20744.97, -23067.92, -21084.42, 0.000, 0.000, 0.000, 10:48:33.977, 1583740113977
47, -25345.34, -29854.82, -19304.33, -15739.34, -18634.80, -20790.05, -23212.33, -21282.99, 0.000, 0.000, 0.000, 10:48:33.977, 1583740113977
48, -24841.97, -29776.41, -19181.35, -15624.36, -18083.66, -20727.02, -22936.04, -21042.98, 0.000, 0.000, 0.000, 10:48:33.977, 1583740113977
49, -24215.03, -29719.15, -19026.36, -15499.03, -17361.29, -20680.50, -22647.17, -20731.55, 0.000, 0.000, 0.000, 10:48:33.977, 1583740113977
50, -24387.76, -29768.48, -19023.70, -15472.64, -17403.45, -20678.47, -22758.03, -20767.16, 0.000, 0.000, 0.000, 10:48:33.978, 1583740113978
51, -25016.00, -29832.38, -19191.68, -15642.98, -18191.99, -20756.12, -23073.46, -21091.46, 0.000, 0.000, 0.000, 10:48:33.978, 1583740113978
52, -25314.96, -29837.03, -19294.85, -15739.87, -18626.24, -20784.24, -23198.05, -21272.69, -0.004, -0.016, 0.974, 10:48:33.978, 1583740113978
53, -24850.49, -29780.53, -19194.25, -15639.09, -18099.53, -20740.38, -22948.02, -21056.93, 0.000, 0.000, 0.000, 10:48:33.978, 1583740113978
54, -24215.61, -29709.92, -19028.60, -15499.21, -17365.72, -20683.97, -22652.08, -20738.22, 0.000, 0.000, 0.000, 10:48:33.978, 1583740113978
55, -24377.35, -29748.47, -19014.67, -15459.81, -17390.48, -20671.70, -22748.35, -20759.96, 0.000, 0.000, 0.000, 10:48:33.979, 1583740113979
56, -25030.62, -29839.15, -19203.75, -15651.72, -18198.46, -20769.84, -23084.75, -21103.09, 0.000, 0.000, 0.000, 10:48:33.979, 1583740113979
57, -25340.02, -29863.76, -19305.31, -15748.39, -18636.71, -20797.40, -23209.83, -21286.79, 0.000, 0.000, 0.000, 10:48:33.979, 1583740113979
58, -24857.58, -29788.77, -19184.97, -15633.50, -18092.98, -20736.49, -22941.36, -21055.19, 0.000, 0.000, 0.000, 10:48:33.979, 1583740113979
59, -24222.45, -29714.68, -19018.18, -15492.91, -17351.64, -20676.73, -22640.44, -20730.55, 0.000, 0.000, 0.000, 10:48:33.979, 1583740113979
60, -24390.13, -29765.33, -19018.12, -15471.79, -17392.18, -20680.66, -22755.10, -20769.38, 0.000, 0.000, 0.000, 10:48:33.980, 1583740113980
61, -25011.67, -29821.85, -19175.47, -15628.38, -18171.43, -20745.37, -23059.67, -21078.74, 0.000, 0.000, 0.000, 10:48:33.980, 1583740113980
62, -25321.42, -29842.08, -19279.41, -15727.96, -18615.58, -20774.81, -23186.40, -21263.57, -0.006, -0.020, 0.976, 10:48:33.980, 1583740113980
63, -24861.91, -29782.07, -19184.10, -15639.56, -18099.68, -20739.20, -22943.84, -21056.82, 0.000, 0.000, 0.000, 10:48:33.980, 1583740113980
64, -24233.78, -29725.29, -19028.58, -15509.90, -17370.14, -20692.04, -22654.10, -20744.14, 0.000, 0.000, 0.000, 10:48:33.980, 1583740113980
65, -24379.18, -29752.09, -19010.58, -15458.13, -17384.20, -20671.14, -22742.43, -20758.51, 0.000, 0.000, 0.000, 10:48:33.981, 1583740113981
66, -25018.35, -29829.38, -19180.81, -15623.94, -18173.69, -20750.11, -23061.30, -21084.20, 0.000, 0.000, 0.000, 10:48:33.981, 1583740113981
67, -25348.96, -29861.35, -19295.08, -15734.93, -18627.74, -20789.38, -23198.85, -21276.87, 0.000, 0.000, 0.000, 10:48:33.981, 1583740113981
68, -24892.51, -29811.86, -19190.00, -15635.47, -18105.81, -20741.99, -22947.24, -21060.95, 0.000, 0.000, 0.000, 10:48:33.981, 1583740113981
69, -24248.91, -29743.71, -19034.46, -15510.10, -17374.26, -20695.57, -22656.35, -20749.62, 0.000, 0.000, 0.000, 10:48:33.981, 1583740113981
70, -24387.79, -29763.52, -19013.69, -15468.10, -17381.59, -20675.81, -22739.93, -20759.09, 0.000, 0.000, 0.000, 10:48:33.982, 1583740113982
71, -25016.38, -29828.20, -19173.64, -15621.68, -18161.11, -20742.82, -23051.33, -21072.04, 0.000, 0.000, 0.000, 10:48:33.982, 1583740113982
72, -25347.03, -29856.05, -19292.46, -15733.84, -18625.71, -20787.66, -23196.51, -21273.70, 0.000, -0.020, 0.968, 10:48:33.982, 1583740113982
73, -24880.17, -29795.14, -19187.81, -15638.82, -18106.83, -20742.02, -22947.66, -21060.69, 0.000, 0.000, 0.000, 10:48:33.982, 1583740113982
74, -24242.66, -29735.06, -19026.38, -15503.26, -17368.67, -20689.36, -22653.51, -20742.35, 0.000, 0.000, 0.000, 10:48:33.982, 1583740113982
75, -24407.97, -29778.65, -19017.40, -15468.01, -17384.54, -20682.25, -22755.33, -20768.48, 0.000, 0.000, 0.000, 10:48:33.983, 1583740113983
76, -25038.18, -29858.73, -19188.12, -15640.03, -18173.06, -20758.47, -23072.19, -21086.32, 0.000, 0.000, 0.000, 10:48:33.983, 1583740113983
77, -25345.02, -29856.03, -19286.87, -15733.86, -18620.97, -20781.06, -23194.83, -21267.86, 0.000, 0.000, 0.000, 10:48:33.983, 1583740113983
78, -24874.72, -29783.23, -19175.23, -15624.54, -18096.91, -20723.80, -22937.27, -21045.31, 0.000, 0.000, 0.000, 10:48:33.983, 1583740113983
79, -24243.46, -29725.23, -19021.15, -15497.63, -17366.12, -20682.20, -22647.32, -20741.84, 0.000, 0.000, 0.000, 10:48:33.983, 1583740113983
80, -24390.76, -29763.87, -19013.60, -15468.86, -17378.46, -20677.13, -22744.82, -20760.30, 0.000, 0.000, 0.000, 10:48:33.983, 1583740113983
81, -25022.73, -29831.31, -19186.16, -15640.88, -18167.63, -20756.46, -23063.69, -21080.44, 0.000, 0.000, 0.000, 10:48:33.983, 1583740113983
82, -25338.36, -29853.30, -19291.75, -15739.90, -18627.07, -20786.54, -23193.53, -21272.91, 0.006, -0.018, 0.964, 10:48:33.983, 1583740113983
83, -24877.20, -29792.33, -19181.98, -15630.78, -18108.42, -20733.57, -22942.37, -21057.31, 0.000, 0.000, 0.000, 10:48:33.984, 1583740113984
84, -24223.52, -29707.99, -19012.66, -15481.94, -17357.18, -20668.48, -22633.40, -20722.39, 0.000, 0.000, 0.000, 10:48:33.984, 1583740113984
85, -24388.90, -29760.95, -19012.84, -15464.79, -17376.87, -20676.73, -22742.29, -20759.49, 0.000, 0.000, 0.000, 10:48:33.984, 1583740113984
86, -25041.11, -29857.19, -19186.94, -15641.68, -18168.41, -20761.26, -23066.51, -21085.81, 0.000, 0.000, 0.000, 10:48:33.984, 1583740113984
87, -25340.11, -29860.21, -19291.32, -15737.55, -18627.63, -20785.33, -23196.35, -21268.73, 0.000, 0.000, 0.000, 10:48:33.984, 1583740113984
88, -24872.46, -29786.31, -19181.86, -15632.92, -18107.84, -20731.71, -22938.97, -21051.45, 0.000, 0.000, 0.000, 10:48:33.984, 1583740113984
89, -24244.11, -29729.67, -19033.56, -15508.06, -17377.63, -20690.45, -22653.22, -20743.89, 0.000, 0.000, 0.000, 10:48:33.984, 1583740113984
90, -24367.67, -29757.81, -19007.63, -15459.07, -17368.94, -20669.82, -22732.93, -20748.30, 0.000, 0.000, 0.000, 10:48:34.436, 1583740114436
91, -24990.52, -29822.46, -19178.49, -15629.26, -18152.68, -20749.93, -23051.40, -21069.58, 0.000, 0.000, 0.000, 10:48:34.437, 1583740114437
92, -25334.49, -29856.03, -19302.61, -15745.44, -18633.69, -20795.77, -23202.29, -21277.38, 0.006, -0.020, 0.966, 10:48:34.437, 1583740114437
93, -24885.36, -29798.67, -19195.37, -15643.74, -18122.28, -20744.27, -22950.64, -21062.23, 0.000, 0.000, 0.000, 10:48:34.438, 1583740114438
94, -24254.08, -29721.31, -19041.94, -15514.14, -17386.04, -20697.85, -22659.64, -20747.36, 0.000, 0.000, 0.000, 10:48:34.438, 1583740114438
95, -24371.13, -29754.35, -19019.79, -15468.28, -17377.45, -20681.69, -22742.54, -20754.51, 0.000, 0.000, 0.000, 10:48:34.438, 1583740114438
96, -24991.06, -29822.52, -19176.37, -15623.56, -18148.74, -20747.13, -23049.63, -21060.89, 0.000, 0.000, 0.000, 10:48:34.438, 1583740114438
97, -25323.68, -29846.69, -19291.70, -15734.67, -18623.50, -20783.48, -23192.17, -21259.79, 0.000, 0.000, 0.000, 10:48:34.438, 1583740114438
98, -24874.47, -29783.61, -19190.47, -15642.53, -18117.90, -20739.09, -22945.58, -21053.78, 0.000, 0.000, 0.000, 10:48:34.439, 1583740114439
99, -24236.55, -29720.20, -19030.36, -15503.33, -17375.26, -20687.90, -22648.66, -20737.30, 0.000, 0.000, 0.000, 10:48:34.443, 1583740114443
100, -24364.25, -29750.89, -19012.37, -15460.43, -17363.26, -20674.96, -22733.09, -20751.07, 0.000, 0.000, 0.000, 10:48:34.444, 1583740114444
101, -24982.43, -29821.65, -19175.83, -15626.80, -18140.09, -20747.76, -23042.90, -21063.75, 0.000, 0.000, 0.000, 10:48:34.444, 1583740114444
102, -25340.28, -29854.08, -19307.62, -15758.72, -18633.46, -20801.38, -23198.92, -21275.55, 0.006, -0.022, 0.974, 10:48:34.444, 1583740114444
103, -24906.12, -29803.97, -19211.26, -15662.45, -18138.80, -20758.53, -22964.43, -21073.49, 0.000, 0.000, 0.000, 10:48:34.445, 1583740114445
104, -24242.72, -29725.49, -19036.58, -15509.76, -17380.31, -20693.22, -22653.09, -20740.23, 0.000, 0.000, 0.000, 10:48:34.445, 1583740114445
105, -24364.90, -29756.45, -19016.33, -15467.12, -17365.12, -20681.29, -22737.09, -20751.04, 0.000, 0.000, 0.000, 10:48:34.445, 1583740114445
106, -25005.66, -29849.61, -19193.33, -15643.40, -18156.34, -20769.62, -23066.66, -21082.92, 0.000, 0.000, 0.000, 10:48:34.445, 1583740114445
107, -25333.02, -29851.51, -19302.79, -15746.04, -18630.60, -20798.74, -23200.02, -21275.11, 0.000, 0.000, 0.000, 10:48:34.445, 1583740114445
108, -24891.64, -29787.81, -19205.04, -15650.15, -18134.93, -20753.88, -22959.40, -21073.27, 0.000, 0.000, 0.000, 10:48:34.445, 1583740114445
109, -24241.18, -29724.71, -19044.94, -15522.08, -17388.12, -20705.13, -22659.06, -20753.53, 0.000, 0.000, 0.000, 10:48:34.446, 1583740114446
110, -24372.92, -29768.70, -19028.93, -15484.77, -17375.40, -20698.54, -22747.57, -20768.17, 0.000, 0.000, 0.000, 10:48:34.446, 1583740114446
111, -25000.52, -29839.67, -19192.82, -15641.26, -18150.82, -20768.59, -23064.96, -21080.09, 0.000, 0.000, 0.000, 10:48:34.446, 1583740114446
112, -25321.04, -29847.87, -19294.79, -15734.04, -18622.71, -20788.91, -23196.39, -21269.23, 0.000, 0.000, 0.000, 10:48:34.446, 1583740114446
113, -24888.71, -29786.87, -19197.00, -15639.60, -18133.99, -20742.78, -22958.13, -21065.00, 0.002, -0.020, 0.964, 10:48:34.446, 1583740114446
114, -24252.07, -29734.14, -19040.09, -15513.94, -17392.67, -20696.64, -22659.79, -20748.10, 0.000, 0.000, 0.000, 10:48:34.446, 1583740114446
115, -24368.81, -29760.10, -19021.18, -15475.77, -17373.32, -20686.52, -22742.50, -20755.99, 0.000, 0.000, 0.000, 10:48:34.447, 1583740114447
116, -24987.69, -29828.49, -19182.20, -15635.67, -18144.59, -20759.61, -23055.82, -21069.89, 0.000, 0.000, 0.000, 10:48:34.447, 1583740114447
117, -25329.17, -29853.53, -19303.44, -15743.61, -18634.58, -20796.93, -23203.66, -21272.38, 0.000, 0.000, 0.000, 10:48:34.447, 1583740114447
118, -24892.29, -29795.90, -19204.04, -15645.37, -18145.10, -20747.58, -22963.38, -21067.68, 0.000, 0.000, 0.000, 10:48:34.447, 1583740114447
119, -24239.28, -29716.17, -19041.94, -15512.18, -17393.21, -20693.22, -22658.05, -20742.40, 0.000, 0.000, 0.000, 10:48:34.448, 1583740114448
120, -24358.30, -29750.69, -19023.99, -15469.06, -17367.66, -20680.88, -22740.73, -20747.27, 0.000, 0.000, 0.000, 10:48:34.448, 1583740114448
121, -24987.55, -29831.20, -19187.83, -15628.63, -18142.66, -20756.48, -23055.78, -21063.63, 0.000, 0.000, 0.000, 10:48:34.448, 1583740114448
122, -25335.16, -29862.82, -19307.26, -15744.32, -18637.76, -20797.87, -23207.75, -21272.09, 0.000, 0.000, 0.000, 10:48:34.448, 1583740114448
123, -24882.36, -29776.75, -19197.78, -15638.80, -18139.09, -20740.92, -22958.62, -21063.08, 0.002, -0.022, 0.966, 10:48:34.448, 1583740114448
124, -24236.09, -29707.08, -19038.63, -15506.52, -17386.55, -20689.73, -22655.55, -20738.22, 0.000, 0.000, 0.000, 10:48:34.448, 1583740114448
125, -24362.15, -29759.54, -19027.06, -15473.42, -17366.84, -20688.37, -22745.38, -20754.98, 0.000, 0.000, 0.000, 10:48:34.448, 1583740114448
126, -24981.11, -29830.46, -19183.76, -15628.54, -18135.33, -20756.66, -23052.96, -21065.67, 0.000, 0.000, 0.000, 10:48:34.449, 1583740114449
127, -25333.38, -29848.07, -19302.23, -15742.24, -18633.55, -20793.09, -23201.24, -21269.29, 0.000, 0.000, 0.000, 10:48:34.449, 1583740114449
128, -24904.85, -29801.40, -19213.11, -15651.85, -18156.37, -20753.08, -22973.12, -21078.68, 0.000, 0.000, 0.000, 10:48:34.449, 1583740114449
129, -24259.98, -29737.30, -19053.95, -15518.75, -17406.85, -20704.13, -22671.87, -20758.80, 0.000, 0.000, 0.000, 10:48:34.449, 1583740114449
130, -24361.14, -29757.26, -19026.05, -15472.70, -17366.81, -20687.46, -22744.06, -20753.86, 0.000, 0.000, 0.000, 10:48:34.449, 1583740114449
131, -24977.83, -29826.44, -19180.05, -15632.18, -18129.88, -20757.73, -23052.96, -21064.33, 0.000, 0.000, 0.000, 10:48:34.449, 1583740114449
132, -25339.59, -29860.52, -19304.75, -15753.31, -18635.68, -20803.82, -23208.11, -21278.50, 0.000, 0.000, 0.000, 10:48:34.449, 1583740114449
133, -24913.01, -29801.74, -19211.46, -15661.67, -18158.24, -20759.12, -22972.70, -21081.18, 0.002, -0.022, 0.968, 10:48:34.450, 1583740114450
134, -24264.54, -29736.89, -19046.88, -15515.33, -17401.84, -20700.80, -22664.58, -20753.30, 0.000, 0.000, 0.000, 10:48:34.450, 1583740114450
135, -24358.37, -29754.91, -19016.39, -15460.41, -17355.91, -20679.97, -22733.69, -20745.17, 0.000, 0.000, 0.000, 10:48:34.450, 1583740114450
136, -24979.62, -29825.88, -19176.32, -15616.98, -18119.89, -20750.02, -23042.10, -21053.24, 0.000, 0.000, 0.000, 10:48:34.450, 1583740114450
137, -25329.98, -29849.48, -19293.27, -15730.67, -18621.69, -20785.76, -23190.63, -21260.29, 0.000, 0.000, 0.000, 10:48:34.450, 1583740114450
138, -24915.89, -29788.08, -19203.66, -15646.24, -18151.78, -20748.16, -22965.46, -21074.39, 0.000, 0.000, 0.000, 10:48:34.450, 1583740114450
139, -24263.96, -29726.99, -19040.65, -15514.57, -17394.93, -20699.37, -22660.89, -20751.11, 0.000, 0.000, 0.000, 10:48:34.450, 1583740114450
140, -24355.85, -29762.75, -19009.04, -15460.01, -17344.66, -20676.46, -22728.06, -20740.36, 0.000, 0.000, 0.000, 10:48:34.450, 1583740114450
141, -24975.35, -29834.01, -19172.32, -15628.72, -18112.67, -20754.13, -23039.60, -21055.54, 0.000, 0.000, 0.000, 10:48:34.451, 1583740114451
142, -25343.37, -29863.96, -19297.00, -15746.45, -18625.44, -20797.16, -23198.12, -21270.17, 0.000, 0.000, 0.000, 10:48:34.451, 1583740114451
143, -24928.36, -29814.70, -19196.17, -15635.80, -18146.80, -20741.39, -22962.04, -21072.64, 0.002, -0.020, 0.966, 10:48:34.451, 1583740114451
144, -24269.79, -29737.81, -19033.98, -15503.19, -17388.85, -20688.08, -22652.64, -20745.57, 0.000, 0.000, 0.000, 10:48:34.451, 1583740114451
145, -24370.71, -29777.19, -19015.54, -15467.27, -17349.69, -20681.78, -22733.53, -20748.45, 0.000, 0.000, 0.000, 10:48:34.451, 1583740114451
146, -24976.55, -29834.06, -19164.32, -15611.17, -18099.48, -20740.79, -23031.13, -21046.11, 0.000, 0.000, 0.000, 10:48:34.451, 1583740114451
147, -25338.27, -29860.95, -19287.50, -15728.30, -18610.42, -20781.29, -23185.98, -21257.96, 0.000, 0.000, 0.000, 10:48:34.451, 1583740114451
148, -24930.33, -29808.44, -19198.02, -15638.58, -18149.35, -20740.32, -22964.20, -21071.57, 0.000, 0.000, 0.000, 10:48:34.451, 1583740114451
149, -24270.46, -29735.55, -19033.11, -15503.93, -17387.96, -20689.69, -22653.60, -20747.96, 0.000, 0.000, 0.000, 10:48:34.452, 1583740114452
150, -24362.51, -29766.96, -19008.86, -15456.21, -17336.24, -20675.79, -22722.51, -20741.23, 0.000, 0.000, 0.000, 10:48:34.452, 1583740114452
151, -24983.97, -29841.19, -19165.26, -15605.41, -18097.56, -20742.80, -23029.18, -21047.97, 0.000, 0.000, 0.000, 10:48:34.452, 1583740114452
152, -25349.58, -29873.96, -19285.11, -15716.83, -18611.76, -20778.87, -23182.69, -21258.16, 0.000, 0.000, 0.000, 10:48:34.452, 1583740114452
153, -24940.25, -29818.41, -19197.44, -15631.74, -18152.41, -20738.64, -22961.86, -21073.40, 0.002, -0.020, 0.968, 10:48:34.452, 1583740114452
154, -24280.03, -29752.67, -19038.08, -15505.67, -17398.06, -20693.18, -22660.18, -20752.48, 0.000, 0.000, 0.000, 10:48:34.452, 1583740114452
155, -24365.44, -29778.63, -19015.28, -15461.75, -17345.04, -20684.24, -22731.03, -20748.95, 0.000, 0.000, 0.000, 10:48:34.452, 1583740114452
156, -24978.05, -29842.95, -19166.04, -15608.38, -18100.60, -20747.02, -23033.38, -21049.58, 0.000, 0.000, 0.000, 10:48:34.452, 1583740114452
157, -25345.58, -29869.69, -19291.99, -15733.30, -18622.89, -20790.29, -23194.22, -21265.45, 0.000, 0.000, 0.000, 10:48:34.452, 1583740114452
158, -24941.80, -29818.75, -19202.03, -15644.08, -18161.44, -20746.60, -22968.88, -21078.03, 0.000, 0.000, 0.000, 10:48:34.453, 1583740114453
159, -24279.36, -29745.83, -19038.12, -15510.61, -17401.03, -20695.88, -22660.24, -20753.04, 0.000, 0.000, 0.000, 10:48:34.453, 1583740114453
160, -24371.43, -29781.60, -19013.49, -15464.30, -17341.24, -20684.46, -22730.52, -20746.87, 0.000, 0.000, 0.000, 10:48:34.453, 1583740114453
161, -24982.57, -29843.40, -19162.64, -15607.37, -18091.17, -20745.05, -23031.50, -21044.26, 0.000, 0.000, 0.000, 10:48:34.453, 1583740114453
162, -25355.97, -29877.40, -19285.13, -15724.81, -18616.92, -20786.54, -23196.13, -21261.34, 0.000, 0.000, 0.000, 10:48:34.453, 1583740114453
163, -24947.96, -29824.15, -19189.33, -15625.92, -18152.95, -20734.21, -22964.25, -21071.64, -0.002, -0.016, 0.968, 10:48:34.453, 1583740114453
164, -24275.71, -29739.35, -19020.78, -15486.32, -17391.06, -20678.36, -22655.32, -20740.32, 0.000, 0.000, 0.000, 10:48:34.453, 1583740114453
165, -24364.25, -29774.22, -18998.92, -15443.51, -17329.33, -20671.54, -22723.36, -20733.59, 0.000, 0.000, 0.000, 10:48:34.454, 1583740114454
166, -24992.27, -29856.83, -19169.39, -15610.39, -18092.24, -20751.13, -23035.01, -21048.73, 0.000, 0.000, 0.000, 10:48:34.454, 1583740114454
167, -25362.50, -29883.43, -19293.22, -15732.79, -18614.73, -20790.77, -23188.84, -21263.64, 0.000, 0.000, 0.000, 10:48:34.454, 1583740114454
168, -24962.03, -29829.43, -19201.36, -15641.06, -18161.82, -20743.45, -22966.46, -21078.54, 0.000, 0.000, 0.000, 10:48:34.454, 1583740114454
169, -24296.03, -29758.24, -19030.23, -15498.14, -17394.98, -20685.96, -22649.29, -20746.82, 0.000, 0.000, 0.000, 10:48:34.454, 1583740114454
170, -24383.14, -29797.36, -19011.19, -15457.10, -17334.83, -20681.82, -22721.91, -20744.16, 0.000, 0.000, 0.000, 10:48:34.454, 1583740114454
171, -24992.13, -29860.46, -19167.76, -15609.94, -18091.88, -20751.52, -23031.95, -21049.17, 0.000, 0.000, 0.000, 10:48:34.454, 1583740114454
172, -25355.35, -29878.07, -19293.33, -15730.73, -18621.39, -20792.93, -23193.55, -21266.81, 0.000, 0.000, 0.000, 10:48:34.454, 1583740114454
173, -24961.29, -29831.69, -19215.55, -15652.12, -18180.26, -20758.11, -22981.55, -21093.41, -0.002, -0.018, 0.972, 10:48:34.455, 1583740114455
174, -24296.28, -29765.39, -19042.59, -15506.32, -17405.55, -20695.64, -22660.13, -20753.39, 0.000, 0.000, 0.000, 10:48:34.455, 1583740114455
175, -24386.94, -29808.82, -19019.08, -15463.20, -17338.58, -20687.19, -22729.76, -20744.25, 0.000, 0.000, 0.000, 10:48:34.455, 1583740114455
176, -25007.53, -29884.33, -19179.79, -15619.60, -18094.41, -20758.64, -23043.20, -21053.26, 0.000, 0.000, 0.000, 10:48:34.455, 1583740114455
177, -25382.66, -29911.19, -19297.65, -15731.31, -18620.25, -20792.40, -23197.18, -21263.88, 0.000, 0.000, 0.000, 10:48:34.455, 1583740114455
178, -24991.78, -29856.77, -19207.12, -15640.57, -18171.45, -20748.21, -22974.17, -21082.34, 0.000, 0.000, 0.000, 10:48:34.455, 1583740114455
179, -24324.44, -29785.26, -19041.14, -15503.71, -17405.95, -20693.83, -22659.66, -20751.36, 0.000, 0.000, 0.000, 10:48:34.455, 1583740114455
180, -24392.95, -29811.21, -19010.52, -15448.12, -17328.75, -20676.44, -22718.02, -20733.50, 0.000, 0.000, 0.000, 10:48:34.455, 1583740114455
181, -25003.24, -29878.29, -19162.98, -15600.00, -18076.41, -20743.09, -23023.66, -21036.63, 0.000, 0.000, 0.000, 10:48:34.456, 1583740114456
182, -25387.22, -29913.58, -19301.09, -15738.62, -18620.77, -20796.71, -23194.83, -21269.05, 0.000, 0.000, 0.000, 10:48:34.456, 1583740114456
183, -24999.96, -29862.94, -19214.72, -15653.49, -18178.47, -20752.61, -22977.01, -21090.70, 0.002, -0.020, 0.966, 10:48:34.456, 1583740114456
184, -24332.02, -29791.21, -19047.46, -15512.87, -17411.38, -20695.12, -22661.27, -20758.44, 0.000, 0.000, 0.000, 10:48:34.456, 1583740114456
185, -24409.31, -29830.73, -19017.29, -15459.96, -17332.97, -20682.67, -22725.04, -20744.77, 0.000, 0.000, 0.000, 10:48:34.456, 1583740114456
186, -25011.47, -29889.85, -19157.68, -15595.50, -18068.86, -20736.18, -23019.26, -21035.27, 0.000, 0.000, 0.000, 10:48:34.456, 1583740114456
187, -25393.79, -29919.69, -19292.19, -15726.20, -18616.48, -20785.22, -23191.25, -21263.26, 0.000, 0.000, 0.000, 10:48:34.456, 1583740114456
188, -25008.61, -29869.08, -19203.43, -15635.56, -18178.94, -20743.22, -22978.35, -21086.34, 0.000, 0.000, 0.000, 10:48:34.456, 1583740114456
189, -24333.70, -29793.47, -19033.31, -15489.94, -17407.36, -20684.42, -22656.87, -20750.24, 0.000, 0.000, 0.000, 10:48:34.457, 1583740114457
190, -24396.84, -29821.83, -19007.90, -15445.86, -17324.88, -20675.61, -22717.84, -20735.51, 0.000, 0.000, 0.000, 10:48:34.457, 1583740114457
191, -25005.66, -29887.79, -19165.26, -15600.65, -18072.21, -20745.97, -23025.67, -21039.85, 0.000, 0.000, 0.000, 10:48:34.457, 1583740114457
192, -25398.09, -29926.62, -19307.15, -15742.29, -18628.66, -20806.43, -23204.24, -21277.74, 0.000, 0.000, 0.000, 10:48:34.457, 1583740114457
193, -25015.24, -29872.48, -19217.56, -15660.35, -18191.39, -20765.35, -22987.34, -21101.30, -0.002, -0.018, 0.976, 10:48:34.457, 1583740114457
194, -24340.51, -29798.14, -19051.64, -15525.05, -17421.73, -20713.49, -22670.46, -20770.94, 0.000, 0.000, 0.000, 10:48:34.457, 1583740114457
195, -24402.00, -29827.31, -19020.28, -15468.50, -17334.67, -20698.88, -22725.22, -20749.71, 0.000, 0.000, 0.000, 10:48:34.457, 1583740114457
196, -25010.62, -29894.21, -19168.43, -15607.13, -18072.59, -20758.82, -23026.07, -21043.96, 0.000, 0.000, 0.000, 10:48:34.457, 1583740114457
197, -25392.70, -29920.00, -19294.76, -15729.75, -18618.13, -20801.11, -23194.72, -21267.44, 0.000, 0.000, 0.000, 10:48:34.457, 1583740114457
198, -25005.92, -29860.34, -19205.58, -15636.43, -18184.73, -20751.18, -22980.54, -21087.95, 0.000, 0.000, 0.000, 10:48:34.458, 1583740114458
199, -24337.45, -29791.79, -19042.08, -15500.64, -17417.24, -20699.19, -22665.43, -20758.82, 0.000, 0.000, 0.000, 10:48:34.458, 1583740114458
200, -24398.31, -29820.94, -19015.34, -15454.08, -17328.32, -20689.58, -22724.06, -20740.70, 0.000, 0.000, 0.000, 10:48:34.458, 1583740114458
201, -25012.32, -29893.85, -19169.44, -15602.84, -18068.39, -20757.26, -23030.77, -21043.96, 0.000, 0.000, 0.000, 10:48:34.458, 1583740114458
202, -25409.89, -29934.95, -19303.32, -15737.57, -18622.06, -20805.92, -23202.14, -21271.98, 0.000, 0.000, 0.000, 10:48:34.458, 1583740114458
203, -25027.31, -29872.26, -19212.98, -15650.38, -18192.51, -20759.09, -22988.70, -21097.47, 0.000, 0.000, 0.000, 10:48:34.458, 1583740114458
204, -24354.46, -29803.95, -19050.48, -15518.50, -17425.80, -20707.86, -22672.92, -20767.01, 0.002, -0.016, 0.972, 10:48:34.458, 1583740114458
205, -24422.23, -29850.02, -19030.59, -15479.05, -17341.35, -20706.19, -22735.68, -20756.16, 0.000, 0.000, 0.000, 10:48:34.459, 1583740114459
206, -25046.63, -29927.35, -19201.98, -15644.23, -18098.92, -20788.13, -23061.75, -21070.18, 0.000, 0.000, 0.000, 10:48:34.459, 1583740114459
207, -25419.79, -29950.58, -19337.21, -15776.24, -18653.74, -20834.22, -23231.42, -21298.51, 0.000, 0.000, 0.000, 10:48:34.459, 1583740114459
208, -25065.49, -29905.69, -19255.49, -15691.15, -18238.44, -20796.11, -23029.92, -21137.62, 0.000, 0.000, 0.000, 10:48:34.459, 1583740114459
209, -24393.04, -29833.10, -19087.79, -15554.29, -17467.35, -20743.11, -22711.14, -20807.37, 0.000, 0.000, 0.000, 10:48:34.459, 1583740114459
210, -24429.63, -29852.27, -19054.71, -15499.97, -17364.85, -20727.80, -22762.72, -20778.00, 0.000, 0.000, 0.000, 10:48:34.918, 1583740114918
211, -25015.22, -29904.78, -19182.04, -15616.69, -18076.88, -20766.71, -23043.35, -21053.82, 0.000, 0.000, 0.000, 10:48:34.918, 1583740114918
212, -25398.53, -29927.29, -19300.26, -15731.58, -18621.86, -20799.62, -23202.27, -21272.65, 0.000, 0.000, 0.000, 10:48:34.918, 1583740114918
213, -25066.90, -29910.01, -19247.31, -15680.89, -18236.38, -20791.97, -23027.97, -21140.08, 0.000, 0.000, 0.000, 10:48:34.919, 1583740114919
214, -24384.43, -29827.44, -19086.36, -15549.82, -17468.02, -20741.61, -22709.60, -20806.28, 0.002, -0.020, 0.970, 10:48:34.919, 1583740114919
215, -24393.08, -29822.84, -19020.80, -15459.61, -17331.52, -20693.18, -22727.23, -20744.07, 0.000, 0.000, 0.000, 10:48:34.919, 1583740114919
216, -24981.43, -29871.68, -19157.50, -15589.63, -18050.35, -20742.35, -23017.02, -21023.51, 0.000, 0.000, 0.000, 10:48:34.919, 1583740114919
217, -25398.06, -29921.90, -19305.89, -15735.61, -18626.96, -20806.34, -23206.97, -21273.09, 0.000, 0.000, 0.000, 10:48:34.919, 1583740114919
218, -25037.30, -29871.81, -19232.51, -15658.98, -18222.39, -20769.71, -23008.24, -21110.86, 0.000, 0.000, 0.000, 10:48:34.919, 1583740114919
219, -24350.57, -29793.73, -19051.78, -15515.22, -17438.76, -20705.56, -22678.39, -20766.58, 0.000, 0.000, 0.000, 10:48:34.919, 1583740114919
220, -24378.96, -29815.75, -19007.56, -15451.89, -17318.82, -20682.09, -22710.87, -20729.16, 0.000, 0.000, 0.000, 10:48:34.920, 1583740114920
221, -25028.86, -29915.84, -19177.48, -15608.58, -18070.02, -20765.87, -23041.52, -21048.73, 0.000, 0.000, 0.000, 10:48:34.920, 1583740114920
222, -25456.04, -29966.09, -19334.59, -15760.15, -18657.43, -20833.99, -23245.48, -21303.69, 0.000, 0.000, 0.000, 10:48:34.920, 1583740114920
223, -25066.27, -29890.23, -19247.67, -15672.57, -18241.39, -20782.43, -23028.82, -21127.79, 0.000, 0.000, 0.000, 10:48:34.920, 1583740114920
224, -24370.60, -29803.28, -19070.66, -15531.53, -17453.43, -20719.33, -22689.03, -20780.95, 0.010, -0.020, 0.972, 10:48:34.920, 1583740114920
225, -24408.57, -29835.91, -19028.46, -15468.66, -17334.47, -20697.69, -22731.01, -20743.42, 0.000, 0.000, 0.000, 10:48:34.923, 1583740114923
226, -25004.27, -29901.18, -19166.55, -15601.50, -18052.30, -20753.17, -23026.92, -21033.86, 0.000, 0.000, 0.000, 10:48:34.924, 1583740114924
227, -25397.73, -29928.69, -19293.27, -15725.48, -18610.11, -20793.80, -23193.44, -21260.26, 0.000, 0.000, 0.000, 10:48:34.924, 1583740114924
228, -25031.83, -29858.17, -19206.25, -15629.66, -18197.65, -20740.34, -22982.60, -21086.84, 0.000, 0.000, 0.000, 10:48:34.924, 1583740114924
229, -24349.68, -29785.89, -19042.28, -15500.24, -17425.78, -20692.37, -22661.90, -20758.04, 0.000, 0.000, 0.000, 10:48:34.924, 1583740114924
230, -24402.87, -29838.06, -19023.39, -15461.13, -17329.89, -20697.45, -22730.47, -20747.60, 0.000, 0.000, 0.000, 10:48:34.924, 1583740114924
231, -24996.94, -29899.50, -19170.67, -15598.21, -18053.64, -20757.71, -23030.59, -21039.32, 0.000, 0.000, 0.000, 10:48:34.924, 1583740114924
232, -25402.13, -29931.33, -19308.73, -15734.64, -18630.00, -20810.79, -23210.36, -21280.69, 0.000, 0.000, 0.000, 10:48:34.924, 1583740114924
233, -25064.51, -29887.08, -19235.29, -15659.83, -18234.31, -20777.67, -23014.50, -21128.34, 0.000, 0.000, 0.000, 10:48:34.924, 1583740114924
234, -24389.87, -29821.18, -19074.26, -15527.29, -17463.69, -20728.81, -22699.92, -20798.63, 0.008, -0.018, 0.974, 10:48:34.925, 1583740114925
235, -24403.88, -29843.00, -19017.45, -15452.07, -17323.56, -20695.59, -22721.46, -20745.21, 0.000, 0.000, 0.000, 10:48:34.925, 1583740114925
236, -25003.76, -29912.24, -19169.32, -15604.02, -18048.88, -20763.25, -23026.45, -21040.12, 0.000, 0.000, 0.000, 10:48:34.925, 1583740114925
237, -25410.67, -29942.55, -19297.06, -15727.45, -18615.87, -20801.34, -23196.33, -21267.39, 0.000, 0.000, 0.000, 10:48:34.925, 1583740114925
238, -25085.52, -29907.84, -19241.61, -15660.91, -18243.02, -20779.46, -23023.91, -21130.31, 0.000, 0.000, 0.000, 10:48:34.925, 1583740114925
239, -24364.81, -29801.09, -19050.41, -15502.54, -17439.41, -20699.39, -22666.19, -20766.13, 0.000, 0.000, 0.000, 10:48:34.925, 1583740114925
240, -24385.26, -29822.84, -19015.05, -15453.55, -17313.59, -20689.42, -22709.28, -20731.51, 0.000, 0.000, 0.000, 10:48:34.925, 1583740114925
241, -24989.47, -29894.21, -19164.81, -15596.55, -18038.66, -20758.58, -23018.70, -21030.44, 0.000, 0.000, 0.000, 10:48:34.926, 1583740114926
242, -25399.52, -29929.70, -19299.55, -15729.26, -18617.71, -20803.93, -23199.32, -21267.77, 0.000, 0.000, 0.000, 10:48:34.926, 1583740114926
243, -25072.00, -29897.69, -19232.20, -15653.49, -18235.92, -20768.53, -23015.90, -21119.47, 0.000, 0.000, 0.000, 10:48:34.926, 1583740114926
244, -24399.23, -29824.76, -19073.35, -15521.81, -17466.37, -20722.88, -22703.69, -20793.67, 0.008, -0.022, 0.974, 10:48:34.926, 1583740114926
245, -24379.14, -29814.57, -19001.57, -15431.20, -17301.90, -20674.45, -22705.73, -20723.13, 0.000, 0.000, 0.000, 10:48:34.926, 1583740114926
246, -24995.60, -29898.34, -19156.09, -15583.57, -18028.83, -20748.65, -23017.96, -21026.40, 0.000, 0.000, 0.000, 10:48:34.927, 1583740114927
247, -25401.51, -29929.48, -19297.58, -15725.03, -18617.75, -20802.30, -23208.51, -21268.71, 0.000, 0.000, 0.000, 10:48:34.927, 1583740114927
248, -25058.88, -29883.03, -19223.97, -15650.20, -18229.95, -20762.56, -23010.96, -21114.66, 0.000, 0.000, 0.000, 10:48:34.927, 1583740114927
249, -24377.97, -29809.16, -19061.61, -15520.89, -17454.52, -20715.35, -22683.87, -20786.00, 0.000, 0.000, 0.000, 10:48:34.927, 1583740114927
250, -24385.62, -29830.99, -19014.61, -15455.38, -17309.50, -20695.84, -22714.00, -20744.36, 0.000, 0.000, 0.000, 10:48:34.927, 1583740114927
251, -24986.03, -29894.05, -19158.39, -15595.01, -18026.88, -20759.49, -23017.60, -21035.88, 0.000, 0.000, 0.000, 10:48:34.927, 1583740114927
252, -25397.44, -29923.44, -19289.00, -15721.37, -18609.66, -20799.84, -23195.57, -21266.81, 0.000, 0.000, 0.000, 10:48:34.927, 1583740114927
253, -25074.54, -29896.40, -19229.16, -15656.59, -18240.34, -20774.04, -23020.87, -21129.37, 0.000, 0.000, 0.000, 10:48:34.928, 1583740114928
254, -24398.61, -29827.60, -19067.76, -15526.28, -17463.46, -20726.46, -22700.68, -20802.39, 0.002, -0.018, 0.978, 10:48:34.928, 1583740114928
255, -24382.98, -29822.46, -19009.17, -15448.79, -17301.79, -20688.82, -22709.75, -20736.36, 0.000, 0.000, 0.000, 10:48:34.928, 1583740114928
0, -24981.16, -29894.50, -19156.76, -15589.25, -18018.59, -20754.76, -23015.95, -21029.64, 0.000, 0.000, 0.000, 10:48:34.928, 1583740114928
1, -25391.69, -29920.42, -19290.00, -15721.19, -18603.89, -20800.09, -23195.48, -21265.81, 0.000, 0.000, 0.000, 10:48:34.928, 1583740114928
2, -25059.61, -29878.16, -19227.35, -15654.29, -18234.46, -20770.38, -23013.02, -21122.38, 0.000, 0.000, 0.000, 10:48:34.929, 1583740114929
3, -24366.51, -29793.62, -19054.28, -15509.07, -17448.51, -20708.71, -22678.68, -20779.34, 0.000, 0.000, 0.000, 10:48:34.929, 1583740114929
4, -24365.79, -29807.21, -19004.86, -15443.18, -17293.68, -20681.71, -22700.79, -20724.40, 0.000, 0.000, 0.000, 10:48:34.929, 1583740114929
5, -24978.16, -29889.06, -19161.79, -15602.52, -18019.15, -20760.63, -23017.69, -21028.21, 0.000, 0.000, 0.000, 10:48:34.929, 1583740114929
6, -25396.97, -29918.90, -19302.05, -15741.66, -18611.98, -20811.48, -23206.36, -21272.51, 0.000, 0.000, 0.000, 10:48:34.929, 1583740114929
7, -25066.12, -29877.73, -19228.74, -15652.28, -18235.13, -20764.99, -23014.83, -21119.34, 0.000, 0.000, 0.000, 10:48:34.929, 1583740114929
8, -24371.20, -29811.62, -19056.63, -15512.09, -17453.52, -20710.23, -22684.83, -20783.75, 0.004, -0.014, 0.974, 10:48:34.929, 1583740114929
9, -24377.04, -29836.70, -19017.51, -15453.79, -17305.75, -20696.26, -22714.76, -20739.04, 0.000, 0.000, 0.000, 10:48:34.930, 1583740114930
10, -24984.20, -29910.23, -19165.93, -15598.12, -18020.11, -20763.92, -23021.38, -21033.17, 0.000, 0.000, 0.000, 10:48:34.930, 1583740114930
11, -25410.96, -29942.62, -19314.54, -15746.40, -18629.44, -20823.49, -23221.16, -21286.21, 0.000, 0.000, 0.000, 10:48:34.931, 1583740114931
12, -25045.51, -29862.96, -19219.75, -15647.36, -18233.17, -20757.62, -23004.64, -21109.48, 0.000, 0.000, 0.000, 10:48:34.931, 1583740114931
13, -24345.32, -29783.30, -19049.12, -15503.77, -17442.99, -20696.53, -22669.74, -20765.46, 0.000, 0.000, 0.000, 10:48:34.931, 1583740114931
14, -24366.48, -29827.66, -19021.38, -15450.51, -17302.64, -20693.24, -22713.15, -20734.71, 0.000, 0.000, 0.000, 10:48:34.931, 1583740114931
15, -24974.61, -29904.06, -19174.13, -15603.71, -18022.19, -20769.22, -23029.31, -21035.05, 0.000, 0.000, 0.000, 10:48:34.931, 1583740114931
16, -25390.40, -29931.44, -19308.26, -15747.29, -18618.96, -20820.40, -23211.93, -21277.83, 0.000, 0.000, 0.000, 10:48:34.931, 1583740114931
17, -25063.79, -29880.66, -19240.69, -15673.02, -18255.81, -20783.14, -23025.83, -21133.48, 0.000, 0.000, 0.000, 10:48:34.932, 1583740114932
18, -24360.67, -29792.48, -19066.91, -15523.08, -17465.23, -20717.67, -22684.25, -20785.27, 0.006, -0.018, 0.974, 10:48:34.932, 1583740114932
19, -24348.43, -29809.22, -19010.43, -15442.10, -17294.30, -20687.97, -22699.89, -20724.80, 0.000, 0.000, 0.000, 10:48:34.932, 1583740114932
20, -24962.12, -29892.33, -19163.94, -15588.96, -18012.06, -20763.52, -23016.64, -21026.31, 0.000, 0.000, 0.000, 10:48:34.932, 1583740114932
21, -25391.29, -29929.63, -19311.04, -15739.56, -18621.24, -20822.15, -23215.13, -21279.40, 0.000, 0.000, 0.000, 10:48:34.932, 1583740114932
22, -25053.76, -29871.81, -19234.88, -15658.13, -18250.67, -20771.03, -23016.24, -21122.60, 0.000, 0.000, 0.000, 10:48:34.932, 1583740114932
23, -24353.07, -29786.27, -19055.55, -15510.70, -17454.50, -20704.44, -22673.56, -20774.65, 0.000, 0.000, 0.000, 10:48:34.932, 1583740114932
24, -24348.78, -29817.76, -19013.31, -15448.59, -17291.58, -20687.07, -22699.51, -20726.08, 0.000, 0.000, 0.000, 10:48:34.932, 1583740114932
25, -24944.46, -29885.40, -19154.57, -15585.29, -17992.80, -20749.37, -23002.72, -21013.86, 0.000, 0.000, 0.000, 10:48:34.933, 1583740114933
26, -25373.72, -29920.65, -19294.94, -15732.97, -18600.92, -20805.70, -23200.71, -21265.56, 0.000, 0.000, 0.000, 10:48:34.933, 1583740114933
27, -25067.75, -29887.37, -19236.74, -15670.83, -18255.76, -20778.09, -23028.60, -21134.89, 0.000, 0.000, 0.000, 10:48:34.933, 1583740114933
28, -24360.32, -29798.47, -19060.07, -15518.46, -17461.00, -20710.92, -22684.88, -20784.15, 0.004, -0.018, 0.976, 10:48:34.933, 1583740114933
29, -24350.21, -29824.49, -19014.90, -15452.88, -17292.56, -20692.66, -22703.20, -20730.73, 0.000, 0.000, 0.000, 10:48:34.933, 1583740114933
30, -24953.33, -29898.52, -19156.32, -15591.46, -17994.09, -20758.60, -23009.38, -21020.32, 0.000, 0.000, 0.000, 10:48:34.933, 1583740114933
31, -25375.49, -29921.34, -19293.96, -15730.75, -18602.98, -20805.88, -23200.57, -21262.95, 0.000, 0.000, 0.000, 10:48:34.933, 1583740114933
32, -25064.73, -29880.21, -19235.78, -15667.81, -18259.72, -20775.99, -23023.99, -21131.25, 0.000, 0.000, 0.000, 10:48:34.933, 1583740114933
33, -24374.89, -29808.64, -19075.49, -15536.63, -17481.95, -20728.31, -22697.68, -20800.87, 0.000, 0.000, 0.000, 10:48:34.933, 1583740114933
34, -24359.09, -29834.91, -19034.23, -15481.44, -17314.15, -20716.47, -22720.30, -20750.84, 0.000, 0.000, 0.000, 10:48:34.934, 1583740114934
35, -24941.62, -29887.10, -19161.84, -15598.97, -17998.47, -20763.92, -23010.67, -21022.37, 0.000, 0.000, 0.000, 10:48:34.934, 1583740114934
36, -25374.35, -29920.96, -19304.35, -15737.15, -18611.11, -20816.02, -23209.13, -21273.07, 0.000, 0.000, 0.000, 10:48:34.934, 1583740114934
37, -25059.59, -29869.10, -19242.21, -15669.98, -18265.46, -20781.27, -23030.92, -21136.79, 0.000, 0.000, 0.000, 10:48:34.934, 1583740114934
38, -24364.88, -29795.68, -19080.72, -15537.97, -17485.90, -20732.11, -22700.83, -20802.25, 0.000, 0.000, 0.000, 10:48:34.934, 1583740114934
39, -24341.34, -29815.53, -19028.08, -15466.94, -17306.44, -20708.24, -22710.53, -20738.48, 0.002, -0.018, 0.972, 10:48:34.934, 1583740114934
40, -24929.97, -29876.70, -19160.88, -15593.49, -17993.24, -20762.40, -23006.25, -21015.58, 0.000, 0.000, 0.000, 10:48:34.935, 1583740114935
41, -25368.02, -29913.72, -19302.32, -15736.68, -18604.94, -20814.23, -23203.05, -21266.86, 0.000, 0.000, 0.000, 10:48:34.935, 1583740114935
42, -25071.08, -29880.97, -19242.66, -15673.29, -18268.01, -20784.28, -23029.65, -21140.26, 0.000, 0.000, 0.000, 10:48:34.935, 1583740114935
43, -24375.00, -29806.86, -19073.41, -15532.65, -17484.83, -20728.83, -22693.26, -20801.58, 0.000, 0.000, 0.000, 10:48:34.935, 1583740114935
44, -24333.65, -29812.55, -19012.37, -15453.64, -17292.74, -20695.55, -22693.66, -20726.88, 0.000, 0.000, 0.000, 10:48:34.935, 1583740114935
45, -24928.16, -29881.78, -19152.00, -15587.97, -17984.06, -20757.64, -22997.73, -21012.27, 0.000, 0.000, 0.000, 10:48:34.935, 1583740114935
46, -25371.58, -29922.90, -19297.51, -15735.38, -18603.38, -20811.80, -23196.97, -21266.39, 0.000, 0.000, 0.000, 10:48:34.936, 1583740114936
47, -25075.13, -29885.71, -19240.11, -15671.19, -18270.00, -20781.69, -23027.55, -21139.99, 0.000, 0.000, 0.000, 10:48:34.936, 1583740114936
48, -24376.12, -29808.51, -19074.33, -15535.29, -17486.26, -20729.25, -22696.50, -20803.15, 0.000, 0.000, 0.000, 10:48:34.936, 1583740114936
49, -24340.06, -29823.39, -19015.72, -15461.57, -17293.37, -20699.75, -22699.69, -20733.12, 0.004, -0.018, 0.974, 10:48:34.936, 1583740114936
50, -24932.86, -29886.83, -19151.26, -15586.36, -17979.16, -20754.80, -23000.55, -21011.35, 0.000, 0.000, 0.000, 10:48:34.936, 1583740114936
51, -25367.49, -29914.59, -19289.53, -15724.50, -18593.16, -20802.12, -23193.44, -21257.49, 0.000, 0.000, 0.000, 10:48:34.936, 1583740114936
52, -25071.88, -29869.44, -19218.99, -15648.84, -18252.23, -20759.09, -23011.03, -21117.95, 0.000, 0.000, 0.000, 10:48:34.937, 1583740114937
53, -24381.42, -29799.34, -19063.82, -15527.58, -17476.94, -20719.66, -22688.18, -20793.74, 0.000, 0.000, 0.000, 10:48:34.937, 1583740114937
54, -24352.16, -29827.73, -19033.83, -15482.25, -17307.71, -20719.24, -22713.22, -20746.98, 0.000, 0.000, 0.000, 10:48:34.937, 1583740114937
55, -24942.62, -29898.79, -19169.88, -15602.50, -17992.57, -20774.92, -23012.91, -21024.86, 0.000, 0.000, 0.000, 10:48:34.937, 1583740114937
56, -25377.63, -29931.26, -19307.91, -15739.61, -18607.36, -20824.00, -23206.34, -21274.52, 0.000, 0.000, 0.000, 10:48:34.937, 1583740114937
57, -25092.25, -29893.94, -19250.42, -15673.85, -18282.16, -20793.42, -23040.80, -21152.17, 0.000, 0.000, 0.000, 10:48:34.937, 1583740114937
58, -24381.75, -29804.24, -19073.10, -15524.60, -17488.25, -20726.77, -22698.84, -20802.61, 0.000, 0.000, 0.000, 10:48:34.938, 1583740114938
59, -24325.78, -29808.69, -19013.18, -15448.32, -17284.54, -20697.47, -22695.71, -20725.63, 0.004, -0.020, 0.976, 10:48:34.938, 1583740114938
60, -24916.76, -29877.51, -19152.20, -15578.65, -17970.31, -20758.31, -22998.78, -21008.49, 0.000, 0.000, 0.000, 10:48:34.938, 1583740114938
61, -25376.47, -29930.33, -19307.88, -15729.73, -18606.71, -20821.43, -23213.58, -21276.09, 0.000, 0.000, 0.000, 10:48:34.938, 1583740114938
62, -25086.97, -29886.43, -19248.29, -15663.19, -18280.57, -20785.60, -23044.00, -21147.07, 0.000, 0.000, 0.000, 10:48:34.938, 1583740114938
63, -24379.25, -29800.02, -19076.30, -15530.19, -17490.62, -20728.69, -22702.73, -20800.73, 0.000, 0.000, 0.000, 10:48:34.939, 1583740114939
64, -24335.55, -29822.95, -19024.53, -15460.05, -17294.53, -20707.06, -22709.75, -20732.49, 0.000, 0.000, 0.000, 10:48:34.939, 1583740114939
65, -24923.13, -29889.13, -19155.53, -15573.60, -17969.51, -20755.47, -23004.79, -21004.83, 0.000, 0.000, 0.000, 10:48:34.939, 1583740114939
66, -25374.19, -29928.29, -19302.83, -15716.49, -18598.19, -20808.82, -23210.81, -21264.29, 0.000, 0.000, 0.000, 10:48:34.940, 1583740114940
67, -25083.82, -29879.43, -19243.31, -15654.20, -18275.88, -20771.19, -23038.48, -21136.64, 0.000, 0.000, 0.000, 10:48:34.940, 1583740114940
68, -24385.46, -29803.95, -19074.78, -15518.88, -17489.28, -20717.21, -22701.59, -20798.63, 0.000, 0.000, 0.000, 10:48:34.940, 1583740114940
69, -24335.46, -29818.14, -19012.95, -15442.71, -17278.37, -20690.72, -22694.64, -20722.01, 0.008, -0.020, 0.974, 10:48:34.940, 1583740114940
70, -24918.64, -29882.36, -19150.10, -15577.38, -17958.64, -20755.20, -22994.18, -21004.36, 0.000, 0.000, 0.000, 10:48:34.941, 1583740114941
71, -25375.76, -29927.89, -19309.52, -15740.12, -18605.14, -20823.22, -23213.38, -21275.51, 0.000, 0.000, 0.000, 10:48:34.941, 1583740114941
72, -25079.88, -29878.56, -19246.91, -15665.58, -18282.92, -20780.46, -23040.02, -21145.04, 0.000, 0.000, 0.000, 10:48:34.941, 1583740114941
73, -24377.04, -29794.72, -19070.64, -15513.74, -17486.84, -20716.02, -22697.41, -20797.09, 0.000, 0.000, 0.000, 10:48:34.941, 1583740114941
74, -24318.59, -29806.63, -19010.31, -15438.04, -17272.40, -20688.08, -22688.38, -20718.35, 0.000, 0.000, 0.000, 10:48:35.397, 1583740115397
75, -24908.65, -29875.92, -19143.49, -15572.62, -17947.15, -20748.65, -22985.37, -20995.26, 0.000, 0.000, 0.000, 10:48:35.398, 1583740115398
76, -25362.54, -29915.30, -19302.56, -15743.67, -18592.38, -20817.23, -23198.92, -21264.69, 0.000, 0.000, 0.000, 10:48:35.398, 1583740115398
77, -25091.69, -29883.86, -19247.49, -15671.28, -18285.27, -20782.32, -23039.39, -21148.01, 0.000, 0.000, 0.000, 10:48:35.398, 1583740115398
