%OpenBCI Raw EEG Data
%Number of channels = 8
%Sample Rate = 250.0 Hz
%First Column = SampleIndex
%Last Column = Timestamp 
%Other Columns = EEG data in microvolts followed by Accel Data (in G) interleaved with Aux Data
0, 0.00, 0.00, 0.00, 0.00, 0.00, 0.00, 0.00, 0.00, 0.000, 0.000, 0.000, 10:38:23.532, 1583739503532
1, -25944.38, -31579.71, -20501.33, -16337.85, -19749.08, -21157.54, -23793.61, -22636.08, 0.002, -0.014, 0.972, 10:38:24.016, 1583739504016
2, -26564.42, -31656.51, -20632.78, -16437.38, -20392.81, -21222.80, -24134.65, -22939.84, 0.000, 0.000, 0.000, 10:38:24.016, 1583739504016
3, -27218.54, -31716.10, -20817.68, -16614.74, -21226.42, -21338.18, -24454.01, -23335.69, 0.000, 0.000, 0.000, 10:38:24.016, 1583739504016
4, -27065.19, -31688.54, -20795.55, -16580.08, -21091.62, -21301.97, -24331.75, -23279.61, 0.000, 0.000, 0.000, 10:38:24.016, 1583739504016
5, -26245.78, -31591.44, -20605.60, -16430.59, -20186.44, -21219.27, -23915.81, -22844.31, 0.000, 0.000, 0.000, 10:38:24.017, 1583739504017
6, -25945.08, -31578.90, -20507.59, -16329.76, -19749.22, -21151.99, -23797.77, -22631.77, 0.000, 0.000, 0.000, 10:38:24.017, 1583739504017
7, -26562.79, -31662.29, -20635.73, -16422.25, -20389.17, -21211.51, -24135.30, -22930.79, 0.000, 0.000, 0.000, 10:38:24.017, 1583739504017
8, -27219.33, -31721.57, -20818.06, -16603.23, -21227.38, -21330.45, -24454.73, -23329.03, 0.002, -0.014, 0.972, 10:38:24.017, 1583739504017
9, -27069.88, -31686.10, -20802.14, -16579.43, -21101.03, -21302.75, -24337.94, -23281.15, 0.000, 0.000, 0.000, 10:38:24.017, 1583739504017
10, -26252.62, -31584.76, -20610.56, -16430.90, -20196.79, -21219.76, -23919.23, -22846.05, 0.000, 0.000, 0.000, 10:38:24.017, 1583739504017
11, -25947.74, -31566.52, -20510.99, -16332.64, -19755.68, -21155.12, -23798.15, -22632.08, 0.000, 0.000, 0.000, 10:38:24.017, 1583739504017
12, -26561.83, -31659.79, -20634.28, -16432.98, -20392.26, -21218.49, -24136.13, -22931.79, 0.000, 0.000, 0.000, 10:38:24.017, 1583739504017
13, -27219.78, -31722.29, -20814.03, -16604.08, -21227.72, -21332.19, -24457.66, -23327.71, 0.000, 0.000, 0.000, 10:38:24.017, 1583739504017
14, -27069.97, -31682.21, -20795.32, -16559.09, -21100.13, -21290.13, -24337.12, -23271.12, 0.000, 0.000, 0.000, 10:38:24.021, 1583739504021
15, -26251.03, -31585.25, -20598.38, -16409.11, -20188.94, -21202.53, -23914.73, -22833.24, 0.000, 0.000, 0.000, 10:38:24.021, 1583739504021
16, -25945.93, -31572.89, -20497.15, -16316.44, -19744.37, -21140.64, -23793.12, -22621.60, 0.000, 0.000, 0.000, 10:38:24.021, 1583739504021
17, -26560.11, -31656.19, -20626.32, -16413.53, -20380.88, -21204.96, -24131.66, -22922.07, 0.000, 0.000, 0.000, 10:38:24.021, 1583739504021
18, -27220.00, -31717.48, -20812.76, -16592.17, -21221.51, -21322.80, -24454.33, -23319.96, 0.000, -0.016, 0.974, 10:38:24.022, 1583739504022
19, -27073.62, -31684.02, -20794.63, -16565.79, -21097.56, -21289.63, -24334.05, -23270.87, 0.000, 0.000, 0.000, 10:38:24.022, 1583739504022
20, -26256.91, -31582.99, -20597.13, -16414.88, -20186.55, -21201.32, -23912.57, -22834.45, 0.000, 0.000, 0.000, 10:38:24.022, 1583739504022
21, -25947.27, -31569.85, -20495.14, -16312.21, -19739.74, -21133.84, -23788.47, -22616.63, 0.000, 0.000, 0.000, 10:38:24.022, 1583739504022
22, -26555.93, -31647.57, -20623.42, -16413.71, -20373.79, -21199.38, -24123.88, -22914.25, 0.000, 0.000, 0.000, 10:38:24.022, 1583739504022
23, -27217.36, -31715.36, -20817.05, -16604.06, -21222.13, -21326.60, -24451.20, -23320.13, 0.000, 0.000, 0.000, 10:38:24.022, 1583739504022
24, -27077.48, -31684.40, -20796.67, -16577.24, -21100.74, -21294.82, -24331.93, -23274.89, 0.000, 0.000, 0.000, 10:38:24.022, 1583739504022
25, -26259.46, -31579.37, -20597.09, -16414.43, -20187.89, -21201.21, -23907.83, -22834.45, 0.000, 0.000, 0.000, 10:38:24.022, 1583739504022
26, -25943.65, -31577.02, -20488.61, -16306.13, -19731.29, -21131.16, -23777.72, -22612.39, 0.000, 0.000, 0.000, 10:38:24.023, 1583739504023
27, -26551.01, -31657.58, -20619.28, -16414.54, -20365.61, -21202.75, -24114.11, -22913.87, 0.000, 0.000, 0.000, 10:38:24.023, 1583739504023
28, -27215.77, -31716.19, -20811.26, -16609.04, -21215.94, -21331.81, -24441.79, -23322.17, 0.006, -0.018, 0.970, 10:38:24.023, 1583739504023
29, -27079.52, -31687.22, -20801.85, -16582.11, -21107.94, -21301.32, -24332.60, -23280.03, 0.000, 0.000, 0.000, 10:38:24.023, 1583739504023
30, -26256.73, -31589.52, -20606.54, -16422.25, -20201.10, -21208.65, -23909.37, -22839.66, 0.000, 0.000, 0.000, 10:38:24.023, 1583739504023
31, -25944.09, -31579.39, -20501.36, -16326.09, -19747.56, -21147.03, -23785.63, -22623.74, 0.000, 0.000, 0.000, 10:38:24.023, 1583739504023
32, -26551.73, -31650.49, -20627.89, -16427.46, -20372.92, -21211.49, -24121.89, -22920.80, 0.000, 0.000, 0.000, 10:38:24.023, 1583739504023
33, -27212.91, -31706.60, -20806.25, -16593.44, -21212.72, -21318.67, -24440.80, -23313.45, 0.000, 0.000, 0.000, 10:38:24.024, 1583739504024
34, -27082.58, -31688.16, -20793.02, -16559.20, -21106.95, -21284.72, -24332.20, -23270.38, 0.000, 0.000, 0.000, 10:38:24.024, 1583739504024
35, -26266.38, -31591.82, -20602.88, -16412.17, -20202.58, -21200.41, -23914.94, -22837.47, 0.000, 0.000, 0.000, 10:38:24.024, 1583739504024
36, -25946.37, -31574.07, -20499.54, -16312.44, -19744.19, -21135.12, -23787.55, -22615.81, 0.000, 0.000, 0.000, 10:38:24.024, 1583739504024
37, -26549.71, -31653.36, -20623.51, -16413.31, -20368.05, -21199.24, -24120.64, -22911.95, 0.000, 0.000, 0.000, 10:38:24.024, 1583739504024
38, -27214.77, -31714.53, -20805.38, -16598.18, -21212.70, -21322.78, -24445.48, -23317.14, 0.004, -0.016, 0.972, 10:38:24.024, 1583739504024
39, -27087.54, -31693.70, -20794.79, -16575.96, -21108.85, -21296.79, -24338.21, -23281.13, 0.000, 0.000, 0.000, 10:38:24.025, 1583739504025
40, -26269.60, -31598.77, -20596.06, -16412.84, -20200.30, -21200.90, -23915.38, -22838.77, 0.000, 0.000, 0.000, 10:38:24.025, 1583739504025
41, -25943.18, -31576.55, -20490.60, -16310.94, -19736.66, -21132.25, -23782.72, -22614.15, 0.000, 0.000, 0.000, 10:38:24.025, 1583739504025
42, -26548.75, -31659.57, -20626.05, -16420.62, -20363.71, -21204.92, -24121.49, -22915.83, 0.000, 0.000, 0.000, 10:38:24.025, 1583739504025
43, -27212.38, -31721.73, -20814.30, -16603.34, -21214.20, -21326.96, -24448.83, -23318.37, 0.000, 0.000, 0.000, 10:38:24.025, 1583739504025
44, -27087.79, -31691.17, -20799.88, -16568.28, -21115.18, -21291.47, -24342.59, -23276.30, 0.000, 0.000, 0.000, 10:38:24.025, 1583739504025
45, -26268.37, -31591.75, -20603.75, -16411.14, -20208.30, -21200.79, -23919.72, -22838.19, 0.000, 0.000, 0.000, 10:38:24.025, 1583739504025
46, -25940.43, -31572.42, -20503.28, -16320.71, -19748.97, -21143.72, -23792.13, -22621.24, 0.000, 0.000, 0.000, 10:38:24.025, 1583739504025
47, -26540.62, -31652.35, -20631.98, -16420.57, -20370.33, -21210.49, -24127.12, -22916.77, 0.000, 0.000, 0.000, 10:38:24.026, 1583739504026
48, -27205.16, -31713.97, -20818.26, -16601.06, -21217.33, -21330.02, -24452.79, -23318.01, 0.000, -0.020, 0.966, 10:38:24.026, 1583739504026
49, -27089.67, -31684.27, -20810.19, -16582.56, -21123.98, -21303.76, -24350.97, -23286.78, 0.000, 0.000, 0.000, 10:38:24.026, 1583739504026
50, -26275.68, -31604.11, -20609.69, -16417.78, -20213.44, -21206.08, -23926.02, -22847.77, 0.000, 0.000, 0.000, 10:38:24.026, 1583739504026
51, -25944.18, -31582.48, -20495.05, -16303.29, -19736.23, -21130.89, -23786.66, -22617.89, 0.000, 0.000, 0.000, 10:38:24.026, 1583739504026
52, -26542.00, -31663.57, -20620.87, -16405.60, -20352.54, -21198.42, -24118.89, -22912.26, 0.000, 0.000, 0.000, 10:38:24.026, 1583739504026
53, -27209.00, -31727.32, -20809.27, -16595.07, -21205.57, -21326.11, -24447.80, -23319.37, 0.000, 0.000, 0.000, 10:38:24.026, 1583739504026
54, -27094.87, -31700.67, -20801.70, -16575.09, -21115.16, -21301.19, -24345.97, -23290.14, 0.000, 0.000, 0.000, 10:38:24.027, 1583739504027
55, -26284.00, -31609.39, -20607.93, -16424.87, -20212.50, -21212.50, -23925.89, -22856.40, 0.000, 0.000, 0.000, 10:38:24.027, 1583739504027
56, -25949.99, -31593.29, -20500.57, -16319.43, -19738.20, -21143.81, -23788.71, -22628.75, 0.000, 0.000, 0.000, 10:38:24.027, 1583739504027
57, -26539.97, -31667.32, -20625.47, -16416.35, -20353.10, -21205.37, -24118.98, -22917.49, 0.000, 0.000, 0.000, 10:38:24.027, 1583739504027
58, -27207.93, -31725.60, -20805.99, -16601.38, -21199.89, -21326.40, -24443.26, -23319.69, -0.002, -0.016, 0.968, 10:38:24.027, 1583739504027
59, -27097.04, -31701.68, -20793.47, -16576.66, -21107.02, -21296.94, -24338.86, -23288.88, 0.000, 0.000, 0.000, 10:38:24.027, 1583739504027
60, -26283.79, -31605.52, -20600.51, -16424.33, -20204.32, -21207.69, -23917.82, -22854.66, 0.000, 0.000, 0.000, 10:38:24.027, 1583739504027
61, -25945.26, -31585.56, -20492.37, -16325.47, -19729.79, -21142.22, -23779.21, -22625.60, 0.000, 0.000, 0.000, 10:38:24.027, 1583739504027
62, -26541.69, -31663.93, -20619.04, -16414.03, -20341.52, -21203.58, -24110.31, -22913.42, 0.000, 0.000, 0.000, 10:38:24.027, 1583739504027
63, -27209.81, -31727.09, -20801.29, -16588.32, -21192.18, -21319.88, -24436.04, -23312.71, 0.000, 0.000, 0.000, 10:38:24.028, 1583739504028
64, -27102.12, -31701.34, -20797.22, -16574.31, -21111.74, -21297.43, -24340.60, -23287.10, 0.000, 0.000, 0.000, 10:38:24.028, 1583739504028
65, -26290.01, -31603.31, -20609.92, -16428.91, -20215.54, -21212.97, -23927.03, -22856.40, 0.000, 0.000, 0.000, 10:38:24.028, 1583739504028
66, -25945.14, -31582.37, -20496.35, -16318.47, -19732.34, -21137.28, -23783.87, -22620.10, 0.000, 0.000, 0.000, 10:38:24.028, 1583739504028
67, -26535.16, -31661.56, -20619.53, -16411.72, -20336.94, -21196.85, -24112.81, -22904.26, 0.000, 0.000, 0.000, 10:38:24.028, 1583739504028
68, -27199.48, -31722.09, -20803.26, -16586.67, -21189.05, -21314.67, -24439.46, -23301.63, 0.000, 0.000, 0.000, 10:38:24.028, 1583739504028
69, -27098.52, -31697.28, -20795.59, -16561.88, -21114.64, -21285.70, -24344.67, -23274.54, 0.002, -0.024, 0.970, 10:38:24.028, 1583739504028
70, -26287.01, -31599.60, -20602.63, -16412.30, -20215.45, -21197.52, -23925.53, -22841.69, 0.000, 0.000, 0.000, 10:38:24.028, 1583739504028
71, -25941.59, -31579.75, -20497.80, -16316.97, -19739.96, -21133.75, -23787.42, -22613.57, 0.000, 0.000, 0.000, 10:38:24.029, 1583739504029
72, -26525.69, -31653.78, -20615.21, -16404.19, -20338.72, -21190.73, -24109.64, -22893.37, 0.000, 0.000, 0.000, 10:38:24.029, 1583739504029
73, -27191.48, -31708.61, -20795.30, -16579.23, -21184.71, -21310.02, -24431.42, -23289.42, 0.000, 0.000, 0.000, 10:38:24.029, 1583739504029
74, -27098.16, -31684.85, -20793.38, -16567.78, -21114.51, -21288.43, -24339.13, -23271.25, 0.000, 0.000, 0.000, 10:38:24.029, 1583739504029
75, -26288.94, -31595.44, -20598.50, -16413.56, -20214.92, -21194.28, -23919.74, -22839.50, 0.000, 0.000, 0.000, 10:38:24.029, 1583739504029
76, -25945.05, -31582.21, -20490.98, -16301.71, -19729.64, -21121.68, -23777.54, -22605.97, 0.000, 0.000, 0.000, 10:38:24.029, 1583739504029
77, -26525.42, -31658.99, -20604.80, -16398.18, -20321.06, -21184.63, -24096.50, -22888.65, 0.000, 0.000, 0.000, 10:38:24.030, 1583739504030
78, -27190.45, -31718.42, -20786.03, -16588.12, -21171.62, -21312.63, -24422.01, -23290.96, 0.000, 0.000, 0.000, 10:38:24.030, 1583739504030
79, -27097.67, -31695.53, -20787.17, -16568.54, -21108.67, -21287.55, -24335.15, -23273.17, 0.000, -0.018, 0.976, 10:38:24.030, 1583739504030
80, -26298.17, -31608.18, -20602.25, -16421.13, -20221.94, -21201.61, -23924.50, -22850.66, 0.000, 0.000, 0.000, 10:38:24.030, 1583739504030
81, -25950.13, -31585.49, -20484.32, -16310.27, -19729.48, -21124.10, -23774.79, -22612.90, 0.000, 0.000, 0.000, 10:38:24.030, 1583739504030
82, -26525.69, -31652.17, -20595.66, -16387.67, -20313.87, -21173.94, -24087.07, -22883.60, 0.000, 0.000, 0.000, 10:38:24.030, 1583739504030
83, -27186.89, -31713.88, -20781.40, -16578.94, -21166.92, -21306.17, -24412.84, -23283.77, 0.000, 0.000, 0.000, 10:38:24.030, 1583739504030
84, -27100.13, -31696.98, -20784.71, -16567.60, -21107.69, -21286.35, -24329.34, -23270.54, 0.000, 0.000, 0.000, 10:38:24.030, 1583739504030
85, -26296.36, -31597.30, -20594.94, -16413.24, -20214.45, -21194.97, -23916.03, -22844.29, 0.000, 0.000, 0.000, 10:38:24.031, 1583739504031
86, -25956.79, -31579.04, -20485.08, -16304.86, -19729.88, -21122.62, -23775.08, -22613.97, 0.000, 0.000, 0.000, 10:38:24.031, 1583739504031
87, -26536.88, -31664.53, -20607.01, -16399.74, -20322.52, -21189.65, -24099.96, -22896.41, 0.000, 0.000, 0.000, 10:38:24.031, 1583739504031
88, -27189.26, -31718.42, -20793.58, -16595.90, -21173.92, -21326.22, -24425.22, -23294.34, 0.000, 0.000, 0.000, 10:38:24.031, 1583739504031
89, -27108.91, -31694.57, -20802.66, -16587.94, -21125.33, -21306.62, -24345.72, -23285.73, -0.004, -0.022, 0.972, 10:38:24.031, 1583739504031
90, -26307.24, -31608.36, -20607.08, -16423.50, -20231.21, -21204.07, -23927.01, -22854.39, 0.000, 0.000, 0.000, 10:38:24.031, 1583739504031
91, -25959.18, -31589.99, -20491.65, -16304.64, -19739.09, -21122.80, -23779.86, -22616.25, 0.000, 0.000, 0.000, 10:38:24.031, 1583739504031
92, -26528.21, -31661.47, -20606.41, -16391.70, -20320.44, -21182.90, -24097.93, -22888.99, 0.000, 0.000, 0.000, 10:38:24.031, 1583739504031
93, -27178.20, -31715.22, -20789.74, -16587.16, -21170.01, -21319.34, -24422.25, -23284.68, 0.000, 0.000, 0.000, 10:38:24.032, 1583739504032
94, -27095.59, -31690.39, -20790.01, -16566.64, -21118.15, -21289.50, -24337.56, -23268.88, 0.000, 0.000, 0.000, 10:38:24.032, 1583739504032
95, -26303.80, -31596.85, -20601.74, -16409.85, -20229.45, -21193.43, -23927.36, -22847.17, 0.000, 0.000, 0.000, 10:38:24.032, 1583739504032
96, -25969.42, -31587.44, -20495.65, -16307.47, -19741.31, -21124.41, -23789.92, -22622.09, 0.000, 0.000, 0.000, 10:38:24.032, 1583739504032
97, -26536.68, -31661.49, -20614.41, -16402.29, -20323.64, -21190.46, -24107.83, -22896.97, 0.000, 0.000, 0.000, 10:38:24.032, 1583739504032
98, -27174.91, -31707.54, -20790.74, -16590.18, -21166.59, -21325.37, -24423.21, -23285.80, 0.000, 0.000, 0.000, 10:38:24.032, 1583739504032
99, -27098.56, -31692.47, -20794.74, -16579.43, -21122.78, -21301.86, -24343.75, -23279.01, 0.002, -0.020, 0.970, 10:38:24.032, 1583739504032
100, -26310.80, -31600.69, -20606.72, -16422.61, -20235.68, -21203.45, -23933.93, -22859.11, 0.000, 0.000, 0.000, 10:38:24.033, 1583739504033
101, -25968.97, -31582.97, -20492.55, -16299.25, -19738.38, -21119.09, -23790.84, -22624.30, 0.000, 0.000, 0.000, 10:38:24.033, 1583739504033
102, -26529.93, -31654.09, -20608.87, -16391.79, -20313.33, -21184.40, -24101.82, -22893.75, 0.000, 0.000, 0.000, 10:38:24.033, 1583739504033
103, -27164.77, -31713.55, -20794.63, -16596.48, -21160.89, -21330.20, -24417.63, -23285.55, 0.000, 0.000, 0.000, 10:38:24.033, 1583739504033
104, -27097.85, -31696.20, -20799.39, -16588.79, -21121.84, -21308.16, -24341.81, -23283.79, 0.000, 0.000, 0.000, 10:38:24.033, 1583739504033
105, -26319.69, -31611.76, -20607.59, -16424.78, -20238.07, -21204.23, -23931.03, -22863.87, 0.000, 0.000, 0.000, 10:38:24.033, 1583739504033
106, -25978.63, -31597.47, -20487.38, -16289.35, -19734.67, -21109.86, -23781.79, -22621.53, 0.000, 0.000, 0.000, 10:38:24.034, 1583739504034
107, -26528.97, -31665.36, -20599.93, -16380.27, -20301.55, -21174.05, -24091.07, -22886.20, 0.000, 0.000, 0.000, 10:38:24.034, 1583739504034
108, -27166.26, -31717.30, -20791.41, -16601.49, -21156.02, -21334.56, -24414.36, -23284.95, 0.000, 0.000, 0.000, 10:38:24.034, 1583739504034
109, -27097.20, -31693.23, -20795.44, -16591.61, -21118.13, -21309.10, -24337.12, -23282.16, 0.004, -0.016, 0.968, 10:38:24.034, 1583739504034
110, -26317.70, -31606.64, -20605.07, -16420.20, -20236.24, -21200.99, -23928.84, -22860.71, 0.000, 0.000, 0.000, 10:38:24.034, 1583739504034
111, -25970.87, -31584.56, -20489.82, -16293.55, -19734.82, -21112.23, -23783.19, -22620.88, 0.000, 0.000, 0.000, 10:38:24.034, 1583739504034
112, -26524.08, -31661.60, -20600.51, -16383.27, -20299.00, -21174.48, -24090.98, -22883.71, 0.000, 0.000, 0.000, 10:38:24.035, 1583739504035
113, -27155.49, -31715.72, -20784.17, -16591.50, -21145.00, -21325.49, -24406.79, -23273.11, 0.000, 0.000, 0.000, 10:38:24.035, 1583739504035
114, -27091.70, -31686.48, -20789.67, -16573.86, -21113.39, -21296.58, -24333.27, -23268.72, 0.000, 0.000, 0.000, 10:38:24.035, 1583739504035
115, -26319.45, -31602.86, -20606.01, -16414.00, -20238.23, -21197.10, -23930.60, -22856.76, 0.000, 0.000, 0.000, 10:38:24.035, 1583739504035
116, -25978.40, -31597.99, -20493.71, -16296.37, -19737.62, -21113.66, -23785.45, -22623.12, 0.000, 0.000, 0.000, 10:38:24.035, 1583739504035
117, -26534.89, -31673.22, -20603.66, -16390.62, -20303.56, -21180.65, -24095.72, -22889.06, 0.000, 0.000, 0.000, 10:38:24.035, 1583739504035
118, -27158.04, -31714.13, -20783.90, -16598.45, -21148.26, -21330.60, -24407.63, -23273.80, 0.000, 0.000, 0.000, 10:38:24.036, 1583739504036
119, -27102.07, -31697.37, -20791.28, -16576.66, -21121.06, -21298.28, -24338.12, -23271.90, 0.006, -0.022, 0.970, 10:38:24.036, 1583739504036
120, -26319.65, -31603.00, -20598.12, -16407.68, -20241.27, -21189.43, -23929.87, -22852.02, 0.000, 0.000, 0.000, 10:38:24.036, 1583739504036
121, -25973.38, -31588.94, -20490.98, -16292.59, -19744.17, -21109.52, -23785.96, -22621.02, 0.000, 0.000, 0.000, 10:38:24.496, 1583739504496
122, -26522.11, -31660.60, -20608.13, -16391.36, -20307.23, -21182.01, -24094.26, -22886.87, 0.000, 0.000, 0.000, 10:38:24.497, 1583739504497
123, -27151.42, -31714.64, -20790.79, -16607.50, -21150.76, -21341.09, -24410.29, -23277.60, 0.000, 0.000, 0.000, 10:38:24.497, 1583739504497
124, -27098.99, -31698.95, -20795.12, -16583.05, -21125.88, -21305.82, -24341.36, -23276.39, 0.000, 0.000, 0.000, 10:38:24.497, 1583739504497
125, -26332.50, -31607.96, -20608.58, -16412.15, -20250.21, -21197.54, -23939.54, -22862.46, 0.000, 0.000, 0.000, 10:38:24.497, 1583739504497
126, -25986.90, -31603.64, -20495.52, -16294.35, -19744.01, -21114.96, -23793.61, -22627.16, 0.000, 0.000, 0.000, 10:38:24.497, 1583739504497
127, -26528.57, -31673.56, -20601.87, -16385.19, -20294.96, -21176.73, -24094.98, -22882.33, 0.000, 0.000, 0.000, 10:38:24.497, 1583739504497
128, -27149.79, -31717.10, -20782.00, -16596.06, -21138.20, -21329.96, -24408.15, -23266.96, 0.000, 0.000, 0.000, 10:38:24.497, 1583739504497
129, -27096.55, -31695.22, -20787.26, -16577.73, -21116.61, -21296.74, -24338.30, -23266.06, 0.008, -0.020, 0.972, 10:38:24.498, 1583739504498
130, -26334.76, -31610.15, -20605.13, -16413.94, -20246.19, -21191.29, -23938.09, -22855.60, 0.000, 0.000, 0.000, 10:38:24.498, 1583739504498
131, -25987.41, -31592.89, -20488.03, -16289.50, -19735.18, -21103.91, -23788.22, -22618.31, 0.000, 0.000, 0.000, 10:38:24.498, 1583739504498
132, -26529.44, -31666.65, -20595.79, -16378.06, -20287.16, -21169.09, -24091.96, -22877.84, 0.000, 0.000, 0.000, 10:38:24.498, 1583739504498
133, -27151.13, -31715.16, -20779.21, -16589.40, -21133.57, -21325.51, -24402.99, -23263.11, 0.000, 0.000, 0.000, 10:38:24.498, 1583739504498
134, -27107.50, -31696.61, -20790.61, -16583.23, -21123.20, -21301.48, -24340.36, -23271.79, 0.000, 0.000, 0.000, 10:38:24.507, 1583739504507
135, -26347.39, -31617.57, -20612.53, -16427.62, -20258.97, -21201.21, -23945.56, -22867.04, 0.000, 0.000, 0.000, 10:38:24.507, 1583739504507
136, -25993.22, -31603.67, -20493.78, -16303.74, -19743.43, -21112.38, -23794.30, -22626.63, 0.000, 0.000, 0.000, 10:38:24.507, 1583739504507
137, -26521.10, -31666.70, -20594.14, -16379.78, -20283.00, -21166.21, -24086.48, -22873.34, 0.000, 0.000, 0.000, 10:38:24.508, 1583739504508
138, -27146.13, -31711.38, -20781.36, -16592.41, -21133.42, -21325.66, -24402.67, -23261.21, 0.000, 0.000, 0.000, 10:38:24.508, 1583739504508
139, -27103.03, -31688.85, -20792.13, -16581.06, -21124.72, -21299.45, -24338.79, -23269.42, 0.008, -0.020, 0.970, 10:38:24.508, 1583739504508
140, -26344.70, -31616.85, -20617.96, -16430.70, -20265.95, -21204.90, -23946.36, -22870.66, 0.000, 0.000, 0.000, 10:38:24.508, 1583739504508
141, -25989.42, -31599.38, -20507.10, -16313.87, -19753.71, -21121.12, -23797.81, -22633.64, 0.000, 0.000, 0.000, 10:38:24.508, 1583739504508
142, -26524.37, -31665.07, -20603.19, -16387.22, -20289.62, -21173.31, -24093.53, -22878.37, 0.000, 0.000, 0.000, 10:38:24.508, 1583739504508
143, -27144.54, -31708.09, -20777.62, -16588.84, -21132.70, -21325.69, -24403.99, -23260.05, 0.000, 0.000, 0.000, 10:38:24.508, 1583739504508
144, -27117.74, -31702.53, -20798.54, -16585.53, -21139.83, -21308.83, -24354.08, -23279.45, 0.000, 0.000, 0.000, 10:38:24.508, 1583739504508
145, -26356.42, -31616.32, -20615.62, -16425.16, -20272.79, -21204.79, -23952.82, -22872.34, 0.000, 0.000, 0.000, 10:38:24.509, 1583739504509
146, -25997.45, -31602.93, -20500.10, -16300.32, -19751.32, -21114.24, -23798.82, -22629.58, 0.000, 0.000, 0.000, 10:38:24.509, 1583739504509
147, -26526.36, -31672.46, -20605.18, -16381.10, -20290.00, -21171.84, -24096.79, -22877.59, 0.000, 0.000, 0.000, 10:38:24.509, 1583739504509
148, -27141.16, -31711.18, -20781.40, -16586.42, -21131.92, -21323.83, -24406.45, -23257.41, 0.000, 0.000, 0.000, 10:38:24.509, 1583739504509
149, -27110.79, -31691.84, -20796.24, -16578.00, -21136.28, -21299.87, -24350.86, -23271.72, 0.002, -0.022, 0.970, 10:38:24.509, 1583739504509
150, -26350.05, -31611.91, -20616.22, -16418.70, -20272.52, -21195.04, -23952.26, -22864.49, 0.000, 0.000, 0.000, 10:38:24.509, 1583739504509
151, -25992.37, -31602.95, -20501.69, -16299.58, -19751.63, -21108.45, -23799.20, -22623.79, 0.000, 0.000, 0.000, 10:38:24.509, 1583739504509
152, -26523.00, -31673.70, -20598.50, -16368.54, -20279.11, -21160.37, -24091.07, -22867.11, 0.000, 0.000, 0.000, 10:38:24.509, 1583739504509
153, -27140.07, -31716.77, -20768.21, -16568.81, -21116.52, -21307.94, -24393.46, -23242.71, 0.000, 0.000, 0.000, 10:38:24.510, 1583739504510
154, -27111.23, -31704.70, -20778.87, -16564.72, -21117.97, -21284.04, -24331.57, -23259.16, 0.000, 0.000, 0.000, 10:38:24.510, 1583739504510
155, -26358.38, -31617.79, -20596.15, -16405.76, -20255.02, -21180.38, -23931.70, -22857.56, 0.000, 0.000, 0.000, 10:38:24.510, 1583739504510
156, -25995.93, -31598.01, -20479.76, -16281.37, -19729.48, -21091.60, -23774.25, -22612.25, 0.000, 0.000, 0.000, 10:38:24.510, 1583739504510
157, -26520.52, -31674.12, -20587.81, -16367.67, -20263.78, -21154.47, -24071.91, -22860.67, 0.000, 0.000, 0.000, 10:38:24.510, 1583739504510
158, -27140.05, -31718.94, -20771.34, -16590.11, -21116.23, -21320.28, -24390.60, -23248.65, 0.000, 0.000, 0.000, 10:38:24.510, 1583739504510
159, -27113.69, -31700.65, -20783.57, -16578.09, -21122.49, -21294.21, -24335.04, -23266.11, 0.000, 0.000, 0.000, 10:38:24.510, 1583739504510
160, -26357.71, -31615.02, -20598.41, -16408.26, -20258.08, -21184.47, -23937.20, -22860.18, 0.000, -0.020, 0.972, 10:38:24.510, 1583739504510
161, -25989.80, -31597.30, -20481.48, -16284.43, -19729.41, -21095.84, -23780.11, -22615.47, 0.000, 0.000, 0.000, 10:38:24.511, 1583739504511
162, -26512.90, -31669.40, -20587.56, -16369.21, -20261.10, -21156.69, -24077.83, -22863.40, 0.000, 0.000, 0.000, 10:38:24.511, 1583739504511
163, -27137.83, -31711.18, -20771.05, -16581.46, -21115.00, -21318.15, -24393.29, -23248.56, 0.000, 0.000, 0.000, 10:38:24.511, 1583739504511
164, -27118.07, -31702.37, -20792.06, -16580.01, -21136.41, -21299.87, -24344.58, -23272.30, 0.000, 0.000, 0.000, 10:38:24.511, 1583739504511
165, -26361.78, -31621.91, -20609.22, -16418.03, -20276.23, -21193.28, -23946.79, -22867.58, 0.000, 0.000, 0.000, 10:38:24.511, 1583739504511
166, -25996.40, -31608.09, -20495.90, -16294.44, -19748.39, -21107.13, -23792.85, -22623.83, 0.000, 0.000, 0.000, 10:38:24.511, 1583739504511
167, -26514.17, -31673.52, -20597.76, -16370.51, -20273.79, -21160.89, -24085.28, -22864.40, 0.000, 0.000, 0.000, 10:38:24.511, 1583739504511
168, -27131.82, -31707.11, -20778.83, -16585.46, -21123.31, -21321.26, -24398.02, -23247.51, 0.000, 0.000, 0.000, 10:38:24.512, 1583739504512
169, -27115.35, -31695.53, -20801.07, -16593.67, -21142.11, -21308.74, -24352.13, -23276.14, 0.000, 0.000, 0.000, 10:38:24.512, 1583739504512
170, -26364.26, -31620.97, -20620.76, -16436.20, -20282.02, -21205.81, -23955.10, -22876.70, 0.000, -0.018, 0.970, 10:38:24.512, 1583739504512
171, -25991.48, -31600.49, -20497.91, -16303.67, -19741.04, -21110.48, -23788.49, -22624.55, 0.000, 0.000, 0.000, 10:38:24.512, 1583739504512
172, -26513.68, -31665.47, -20595.99, -16367.87, -20258.10, -21158.27, -24076.65, -22860.36, 0.000, 0.000, 0.000, 10:38:24.513, 1583739504513
173, -27138.32, -31709.73, -20768.75, -16574.55, -21103.27, -21314.22, -24386.47, -23241.90, 0.000, 0.000, 0.000, 10:38:24.513, 1583739504513
174, -27115.64, -31694.33, -20781.80, -16573.57, -21122.22, -21292.65, -24334.81, -23265.13, 0.000, 0.000, 0.000, 10:38:24.513, 1583739504513
175, -26365.27, -31612.85, -20599.23, -16414.21, -20265.41, -21189.95, -23941.20, -22866.88, 0.000, 0.000, 0.000, 10:38:24.513, 1583739504513
176, -25990.41, -31597.10, -20478.44, -16288.07, -19726.15, -21099.44, -23778.54, -22618.04, 0.000, 0.000, 0.000, 10:38:24.514, 1583739504514
177, -26506.13, -31659.26, -20577.11, -16358.01, -20241.34, -21150.47, -24066.70, -22855.80, 0.000, 0.000, 0.000, 10:38:24.514, 1583739504514
178, -27133.97, -31711.78, -20761.64, -16573.21, -21095.42, -21312.83, -24385.28, -23243.67, 0.000, 0.000, 0.000, 10:38:24.514, 1583739504514
179, -27123.26, -31703.78, -20787.61, -16581.80, -21130.02, -21299.33, -24342.10, -23275.29, 0.000, 0.000, 0.000, 10:38:24.514, 1583739504514
180, -26371.53, -31618.31, -20607.55, -16420.22, -20273.46, -21194.17, -23946.74, -22875.38, 0.004, -0.020, 0.970, 10:38:24.514, 1583739504514
181, -25991.95, -31598.53, -20491.92, -16292.54, -19731.61, -21102.64, -23786.64, -22623.81, 0.000, 0.000, 0.000, 10:38:24.514, 1583739504514
182, -26512.59, -31676.60, -20594.54, -16372.96, -20250.86, -21160.33, -24081.75, -22865.05, 0.000, 0.000, 0.000, 10:38:24.514, 1583739504514
183, -27137.97, -31723.61, -20774.58, -16594.07, -21107.73, -21324.21, -24397.24, -23252.56, 0.000, 0.000, 0.000, 10:38:24.515, 1583739504515
184, -27121.25, -31702.35, -20792.04, -16596.21, -21138.65, -21303.58, -24348.96, -23279.77, 0.000, 0.000, 0.000, 10:38:24.515, 1583739504515
185, -26370.50, -31614.84, -20609.18, -16423.35, -20281.44, -21192.18, -23951.93, -22876.09, 0.000, 0.000, 0.000, 10:38:24.515, 1583739504515
186, -25992.57, -31599.62, -20489.78, -16289.26, -19734.64, -21100.49, -23786.59, -22623.25, 0.000, 0.000, 0.000, 10:38:24.515, 1583739504515
187, -26505.95, -31667.46, -20587.74, -16366.53, -20244.67, -21155.39, -24073.97, -22858.50, 0.000, 0.000, 0.000, 10:38:24.515, 1583739504515
188, -27131.60, -31707.31, -20765.11, -16578.91, -21101.25, -21313.86, -24387.83, -23239.60, 0.000, 0.000, 0.000, 10:38:24.515, 1583739504515
189, -27126.88, -31693.63, -20789.45, -16582.18, -21139.83, -21298.02, -24346.46, -23271.88, 0.000, 0.000, 0.000, 10:38:24.515, 1583739504515
190, -26379.84, -31622.71, -20614.86, -16427.46, -20289.84, -21196.96, -23955.64, -22877.59, 0.004, -0.018, 0.976, 10:38:24.515, 1583739504515
191, -25993.24, -31598.21, -20493.22, -16293.88, -19738.80, -21102.55, -23787.15, -22620.43, 0.000, 0.000, 0.000, 10:38:24.515, 1583739504515
192, -26501.95, -31663.66, -20593.44, -16365.83, -20246.86, -21154.32, -24075.64, -22853.41, 0.000, 0.000, 0.000, 10:38:24.516, 1583739504516
193, -27125.76, -31706.53, -20768.79, -16579.43, -21101.90, -21312.07, -24387.65, -23233.50, 0.000, 0.000, 0.000, 10:38:24.516, 1583739504516
194, -27126.23, -31701.48, -20789.29, -16587.14, -21143.21, -21298.35, -24346.70, -23269.53, 0.000, 0.000, 0.000, 10:38:24.516, 1583739504516
195, -26373.87, -31613.50, -20610.79, -16423.97, -20289.17, -21194.08, -23951.84, -22872.07, 0.000, 0.000, 0.000, 10:38:24.516, 1583739504516
196, -25987.01, -31594.17, -20488.26, -16288.83, -19737.06, -21102.86, -23785.92, -22616.14, 0.000, 0.000, 0.000, 10:38:24.516, 1583739504516
197, -26497.25, -31666.54, -20580.75, -16358.37, -20239.86, -21152.28, -24069.81, -22848.44, 0.000, 0.000, 0.000, 10:38:24.516, 1583739504516
198, -27131.08, -31716.99, -20765.31, -16581.73, -21103.47, -21319.47, -24388.46, -23239.53, 0.000, 0.000, 0.000, 10:38:24.516, 1583739504516
199, -27133.74, -31701.59, -20787.75, -16588.88, -21148.95, -21306.51, -24352.02, -23278.16, 0.000, 0.000, 0.000, 10:38:24.516, 1583739504516
200, -26386.97, -31619.87, -20611.28, -16424.84, -20297.42, -21201.12, -23962.07, -22882.73, 0.000, -0.020, 0.972, 10:38:24.516, 1583739504516
201, -25991.03, -31599.06, -20488.21, -16286.98, -19737.28, -21103.09, -23788.74, -22621.82, 0.000, 0.000, 0.000, 10:38:24.517, 1583739504517
202, -26496.25, -31672.13, -20583.36, -16359.75, -20239.26, -21152.33, -24071.58, -22852.33, 0.000, 0.000, 0.000, 10:38:24.517, 1583739504517
203, -27128.09, -31718.51, -20766.29, -16579.43, -21101.48, -21317.30, -24389.15, -23240.85, 0.000, 0.000, 0.000, 10:38:24.517, 1583739504517
204, -27130.30, -31699.67, -20789.85, -16583.52, -21149.15, -21300.34, -24350.37, -23275.77, 0.000, 0.000, 0.000, 10:38:24.517, 1583739504517
205, -26380.58, -31610.48, -20606.68, -16415.93, -20293.26, -21188.20, -23952.53, -22873.39, 0.000, 0.000, 0.000, 10:38:24.517, 1583739504517
206, -25991.03, -31594.88, -20488.10, -16287.31, -19735.45, -21097.12, -23783.69, -22616.75, 0.000, 0.000, 0.000, 10:38:24.517, 1583739504517
207, -26493.43, -31672.78, -20569.15, -16350.30, -20219.77, -21140.19, -24058.23, -22841.47, 0.000, 0.000, 0.000, 10:38:24.517, 1583739504517
208, -27123.93, -31716.70, -20746.46, -16566.64, -21077.61, -21302.35, -24372.97, -23226.39, 0.000, 0.000, 0.000, 10:38:24.517, 1583739504517
209, -27133.38, -31705.52, -20771.61, -16574.53, -21132.90, -21290.91, -24337.85, -23267.49, 0.000, 0.000, 0.000, 10:38:24.518, 1583739504518
210, -26389.27, -31622.04, -20594.29, -16412.55, -20285.71, -21186.08, -23947.08, -22873.03, 0.002, -0.020, 0.970, 10:38:24.518, 1583739504518
211, -25983.50, -31598.53, -20473.21, -16278.84, -19726.13, -21092.02, -23772.69, -22609.88, 0.000, 0.000, 0.000, 10:38:24.518, 1583739504518
212, -26486.62, -31666.05, -20572.41, -16352.11, -20222.76, -21145.42, -24058.50, -22840.78, 0.000, 0.000, 0.000, 10:38:24.518, 1583739504518
213, -27122.84, -31716.52, -20757.21, -16576.14, -21089.36, -21315.09, -24379.27, -23232.49, 0.000, 0.000, 0.000, 10:38:24.518, 1583739504518
214, -27135.26, -31708.61, -20785.27, -16587.88, -21149.82, -21304.07, -24346.97, -23275.52, 0.000, 0.000, 0.000, 10:38:24.518, 1583739504518
215, -26387.48, -31617.57, -20609.78, -16428.02, -20301.87, -21197.81, -23955.57, -22878.60, 0.000, 0.000, 0.000, 10:38:24.519, 1583739504519
216, -25981.33, -31592.89, -20486.58, -16296.12, -19738.29, -21104.38, -23778.54, -22614.24, 0.000, 0.000, 0.000, 10:38:24.519, 1583739504519
217, -26475.01, -31650.45, -20576.21, -16354.30, -20222.45, -21145.51, -24055.88, -22834.32, 0.000, 0.000, 0.000, 10:38:24.519, 1583739504519
218, -27112.53, -31708.34, -20757.10, -16572.48, -21084.69, -21311.07, -24375.49, -23224.96, 0.000, 0.000, 0.000, 10:38:24.519, 1583739504519
219, -27125.12, -31703.91, -20783.70, -16585.53, -21145.62, -21298.96, -24342.21, -23268.59, 0.000, 0.000, 0.000, 10:38:24.519, 1583739504519
220, -26379.71, -31617.93, -20608.62, -16424.58, -20299.21, -21193.07, -23948.24, -22873.90, 0.006, -0.024, 0.974, 10:38:24.519, 1583739504519
221, -25981.40, -31600.31, -20491.74, -16294.80, -19737.69, -21107.51, -23780.31, -22617.15, 0.000, 0.000, 0.000, 10:38:24.519, 1583739504519
222, -26477.67, -31668.71, -20586.18, -16367.56, -20227.46, -21158.59, -24061.47, -22845.54, 0.000, 0.000, 0.000, 10:38:24.519, 1583739504519
223, -27109.09, -31713.08, -20764.21, -16585.87, -21089.16, -21321.60, -24379.36, -23232.20, 0.000, 0.000, 0.000, 10:38:24.520, 1583739504520
224, -27125.05, -31703.78, -20783.34, -16579.38, -21146.47, -21298.60, -24344.49, -23270.06, 0.000, 0.000, 0.000, 10:38:24.520, 1583739504520
225, -26393.79, -31629.82, -20616.85, -16423.86, -20309.80, -21199.00, -23962.95, -22884.16, 0.000, 0.000, 0.000, 10:38:24.520, 1583739504520
226, -25981.58, -31599.91, -20489.78, -16294.62, -19736.72, -21105.14, -23781.96, -22617.08, 0.000, 0.000, 0.000, 10:38:24.520, 1583739504520
227, -26472.49, -31661.04, -20571.29, -16355.82, -20212.64, -21145.02, -24051.57, -22834.90, 0.000, 0.000, 0.000, 10:38:24.520, 1583739504520
228, -27112.82, -31715.54, -20749.46, -16569.41, -21077.72, -21307.63, -24372.43, -23223.62, 0.000, 0.000, 0.000, 10:38:24.520, 1583739504520
229, -27132.71, -31707.31, -20775.90, -16566.91, -21142.38, -21286.10, -24341.00, -23264.39, 0.000, 0.000, 0.000, 10:38:24.520, 1583739504520
230, -26394.73, -31622.29, -20601.83, -16410.47, -20300.66, -21182.95, -23953.89, -22874.48, 0.002, -0.024, 0.976, 10:38:24.520, 1583739504520
231, -25979.25, -31591.33, -20479.05, -16284.41, -19731.87, -21094.99, -23776.29, -22611.02, 0.000, 0.000, 0.000, 10:38:24.520, 1583739504520
232, -26470.97, -31656.53, -20573.86, -16353.70, -20213.78, -21143.34, -24054.99, -22835.75, 0.000, 0.000, 0.000, 10:38:24.521, 1583739504521
233, -27106.00, -31716.92, -20755.03, -16571.11, -21078.52, -21307.29, -24375.58, -23224.96, 0.000, 0.000, 0.000, 10:38:24.521, 1583739504521
234, -27128.24, -31703.56, -20782.14, -16579.94, -21151.30, -21295.74, -24348.25, -23273.26, 0.000, 0.000, 0.000, 10:38:24.521, 1583739504521
235, -26389.23, -31618.15, -20610.68, -16420.96, -20311.39, -21192.31, -23963.71, -22884.52, 0.000, 0.000, 0.000, 10:38:24.521, 1583739504521
236, -25975.52, -31598.48, -20486.49, -16291.63, -19736.23, -21102.84, -23785.96, -22619.58, 0.000, 0.000, 0.000, 10:38:24.521, 1583739504521
237, -26464.78, -31659.10, -20575.70, -16357.34, -20211.50, -21149.94, -24061.07, -22842.07, 0.000, 0.000, 0.000, 10:38:24.521, 1583739504521
238, -27102.32, -31705.70, -20760.90, -16575.83, -21081.23, -21318.58, -24386.22, -23234.68, 0.000, 0.000, 0.000, 10:38:24.521, 1583739504521
239, -27127.06, -31698.51, -20792.64, -16591.16, -21161.27, -21307.78, -24361.93, -23284.57, 0.000, 0.000, 0.000, 10:38:24.521, 1583739504521
240, -26396.38, -31620.61, -20620.20, -16427.95, -20322.79, -21201.30, -23974.35, -22892.59, 0.004, -0.024, 0.978, 10:38:24.522, 1583739504522
241, -25977.51, -31590.03, -20491.65, -16293.79, -19742.22, -21105.54, -23787.66, -22620.05, 0.000, 0.000, 0.000, 10:38:24.977, 1583739504977
242, -26463.97, -31658.63, -20579.63, -16354.75, -20214.78, -21147.30, -24062.41, -22838.50, 0.000, 0.000, 0.000, 10:38:24.977, 1583739504977
243, -27100.62, -31703.40, -20758.15, -16570.58, -21080.06, -21312.07, -24382.33, -23226.43, 0.000, 0.000, 0.000, 10:38:24.977, 1583739504977
244, -27131.82, -31693.99, -20796.22, -16590.83, -21166.52, -21309.57, -24363.24, -23283.92, 0.000, 0.000, 0.000, 10:38:24.977, 1583739504977
245, -26398.37, -31614.62, -20627.66, -16438.43, -20330.27, -21211.38, -23978.55, -22900.30, 0.000, 0.000, 0.000, 10:38:24.978, 1583739504978
246, -25980.64, -31589.32, -20497.38, -16297.64, -19745.96, -21113.99, -23791.49, -22625.78, 0.000, 0.000, 0.000, 10:38:24.978, 1583739504978
247, -26465.18, -31654.72, -20589.00, -16358.26, -20218.09, -21156.48, -24065.85, -22842.41, 0.000, 0.000, 0.000, 10:38:24.978, 1583739504978
248, -27100.80, -31714.04, -20769.26, -16579.72, -21085.32, -21322.83, -24386.89, -23232.47, 0.000, 0.000, 0.000, 10:38:24.978, 1583739504978
249, -27142.44, -31707.83, -20804.89, -16600.97, -21177.54, -21319.56, -24369.17, -23293.29, 0.000, 0.000, 0.000, 10:38:24.978, 1583739504978
250, -26404.25, -31620.95, -20623.08, -16432.53, -20331.68, -21206.75, -23975.42, -22896.61, 0.000, 0.000, 0.000, 10:38:24.984, 1583739504984
251, -25984.17, -31603.96, -20500.13, -16302.36, -19748.46, -21116.01, -23794.08, -22627.61, 0.002, -0.022, 0.976, 10:38:24.985, 1583739504985
252, -26469.11, -31664.08, -20590.67, -16367.11, -20217.98, -21160.15, -24069.01, -22844.06, 0.000, 0.000, 0.000, 10:38:24.986, 1583739504986
253, -27105.71, -31711.89, -20762.80, -16580.84, -21082.75, -21321.39, -24386.31, -23230.48, 0.000, 0.000, 0.000, 10:38:24.986, 1583739504986
254, -27145.12, -31703.82, -20791.12, -16597.89, -21169.22, -21311.67, -24363.33, -23286.45, 0.000, 0.000, 0.000, 10:38:24.986, 1583739504986
255, -26408.38, -31618.35, -20617.90, -16438.50, -20330.52, -21205.12, -23973.18, -22896.10, 0.000, 0.000, 0.000, 10:38:24.986, 1583739504986
0, -25983.23, -31595.04, -20493.02, -16305.19, -19742.45, -21114.04, -23789.10, -22626.36, 0.000, 0.000, 0.000, 10:38:24.986, 1583739504986
1, -26464.71, -31666.81, -20584.53, -16370.46, -20206.67, -21160.04, -24062.61, -22846.79, 0.000, 0.000, 0.000, 10:38:24.986, 1583739504986
2, -27106.32, -31720.41, -20765.53, -16587.12, -21078.39, -21323.85, -24386.06, -23237.19, 0.000, 0.000, 0.000, 10:38:24.987, 1583739504987
3, -27148.07, -31710.82, -20799.21, -16596.26, -21171.82, -21314.78, -24370.89, -23296.15, 0.000, 0.000, 0.000, 10:38:24.987, 1583739504987
4, -26408.59, -31620.95, -20625.03, -16439.86, -20337.94, -21210.60, -23982.73, -22909.26, 0.000, 0.000, 0.000, 10:38:24.987, 1583739504987
5, -25985.91, -31599.73, -20500.73, -16307.59, -19751.63, -21119.76, -23798.33, -22638.07, 0.006, -0.020, 0.970, 10:38:24.987, 1583739504987
6, -26462.52, -31658.27, -20581.64, -16357.10, -20205.69, -21149.55, -24063.13, -22840.89, 0.000, 0.000, 0.000, 10:38:24.987, 1583739504987
7, -27103.14, -31718.33, -20763.63, -16579.94, -21078.16, -21315.05, -24387.14, -23230.53, 0.000, 0.000, 0.000, 10:38:24.987, 1583739504987
8, -27149.75, -31717.33, -20798.10, -16597.96, -21175.48, -21310.76, -24370.49, -23292.04, 0.000, 0.000, 0.000, 10:38:24.988, 1583739504988
9, -26415.67, -31624.65, -20623.57, -16431.97, -20340.49, -21201.39, -23982.17, -22901.24, 0.000, 0.000, 0.000, 10:38:24.988, 1583739504988
10, -25981.98, -31595.69, -20492.55, -16287.18, -19742.24, -21100.25, -23788.94, -22620.68, 0.000, 0.000, 0.000, 10:38:24.988, 1583739504988
11, -26461.07, -31669.07, -20583.88, -16355.80, -20202.45, -21147.41, -24061.52, -22837.09, 0.000, 0.000, 0.000, 10:38:24.988, 1583739504988
12, -27099.57, -31713.26, -20762.36, -16575.88, -21072.26, -21314.11, -24384.70, -23226.70, 0.000, 0.000, 0.000, 10:38:24.988, 1583739504988
13, -27141.77, -31705.14, -20796.11, -16587.99, -21174.83, -21304.95, -24369.14, -23285.76, 0.000, 0.000, 0.000, 10:38:24.989, 1583739504989
14, -26407.04, -31615.47, -20619.66, -16424.08, -20339.33, -21194.53, -23977.81, -22894.47, 0.000, 0.000, 0.000, 10:38:24.989, 1583739504989
15, -25978.34, -31588.91, -20494.36, -16294.44, -19747.10, -21106.73, -23791.69, -22621.98, 0.002, -0.018, 0.972, 10:38:24.989, 1583739504989
16, -26452.93, -31656.46, -20582.11, -16355.29, -20201.60, -21150.58, -24062.61, -22835.68, 0.000, 0.000, 0.000, 10:38:24.989, 1583739504989
17, -27094.47, -31708.32, -20762.74, -16576.57, -21072.87, -21320.59, -24386.63, -23229.09, 0.000, 0.000, 0.000, 10:38:24.990, 1583739504990
18, -27143.20, -31707.31, -20800.42, -16602.45, -21179.62, -21320.41, -24375.22, -23298.70, 0.000, 0.000, 0.000, 10:38:24.991, 1583739504991
19, -26414.06, -31621.15, -20627.22, -16442.30, -20346.81, -21216.05, -23989.01, -22913.35, 0.000, 0.000, 0.000, 10:38:24.991, 1583739504991
20, -25980.26, -31597.03, -20497.58, -16307.32, -19748.53, -21122.89, -23796.58, -22634.83, 0.000, 0.000, 0.000, 10:38:24.991, 1583739504991
21, -26460.02, -31670.19, -20590.43, -16374.93, -20205.13, -21169.04, -24070.08, -22851.30, 0.000, 0.000, 0.000, 10:38:24.992, 1583739504992
22, -27102.65, -31709.28, -20769.15, -16591.83, -21074.77, -21332.30, -24390.18, -23240.14, 0.000, 0.000, 0.000, 10:38:24.992, 1583739504992
23, -27148.32, -31696.05, -20801.07, -16602.36, -21176.47, -21321.13, -24369.99, -23300.64, 0.000, 0.000, 0.000, 10:38:24.992, 1583739504992
24, -26417.88, -31622.84, -20629.03, -16441.65, -20345.92, -21215.27, -23983.82, -22914.94, 0.000, 0.000, 0.000, 10:38:24.992, 1583739504992
25, -25974.58, -31596.51, -20499.70, -16307.47, -19742.33, -21121.44, -23788.56, -22634.90, 0.008, -0.020, 0.974, 10:38:24.993, 1583739504993
26, -26448.97, -31665.29, -20587.23, -16368.32, -20190.75, -21163.17, -24059.60, -22845.40, 0.000, 0.000, 0.000, 10:38:24.993, 1583739504993
27, -27098.36, -31714.60, -20768.59, -16590.67, -21066.16, -21330.22, -24387.67, -23237.54, 0.000, 0.000, 0.000, 10:38:24.993, 1583739504993
28, -27144.94, -31702.53, -20808.60, -16613.94, -21179.51, -21324.01, -24376.63, -23301.94, 0.000, 0.000, 0.000, 10:38:24.994, 1583739504994
29, -26417.68, -31622.33, -20639.76, -16453.39, -20353.99, -21218.31, -23993.12, -22918.32, 0.000, 0.000, 0.000, 10:38:24.994, 1583739504994
30, -25982.76, -31600.25, -20504.42, -16313.44, -19748.14, -21122.51, -23797.12, -22636.88, 0.000, 0.000, 0.000, 10:38:24.994, 1583739504994
31, -26459.39, -31673.87, -20589.06, -16373.19, -20195.54, -21163.59, -24066.10, -22847.01, 0.000, 0.000, 0.000, 10:38:24.994, 1583739504994
32, -27099.07, -31715.94, -20770.71, -16585.31, -21067.12, -21323.61, -24392.03, -23234.95, 0.000, 0.000, 0.000, 10:38:24.995, 1583739504995
33, -27146.28, -31696.85, -20802.63, -16600.86, -21181.61, -21313.51, -24379.00, -23296.69, 0.000, 0.000, 0.000, 10:38:24.995, 1583739504995
34, -26428.08, -31623.98, -20637.37, -16445.54, -20361.81, -21212.19, -24000.47, -22917.71, 0.000, 0.000, 0.000, 10:38:24.995, 1583739504995
35, -25983.03, -31595.58, -20506.85, -16308.91, -19753.46, -21120.32, -23802.55, -22634.96, 0.004, -0.022, 0.976, 10:38:24.995, 1583739504995
36, -26447.68, -31656.17, -20585.87, -16362.82, -20190.42, -21156.84, -24062.81, -22838.25, 0.000, 0.000, 0.000, 10:38:24.996, 1583739504996
37, -27096.84, -31717.48, -20769.96, -16586.04, -21069.00, -21324.48, -24388.70, -23232.49, 0.000, 0.000, 0.000, 10:38:24.996, 1583739504996
38, -27149.93, -31707.76, -20806.03, -16598.38, -21184.67, -21314.00, -24374.15, -23295.77, 0.000, 0.000, 0.000, 10:38:24.996, 1583739504996
39, -26420.92, -31620.05, -20629.52, -16425.71, -20355.98, -21199.96, -23985.81, -22904.26, 0.000, 0.000, 0.000, 10:38:24.996, 1583739504996
40, -25973.89, -31588.98, -20495.63, -16291.63, -19743.05, -21106.77, -23787.57, -22619.79, 0.000, 0.000, 0.000, 10:38:24.996, 1583739504996
41, -26438.67, -31651.90, -20578.89, -16348.09, -20181.39, -21145.67, -24055.28, -22824.35, 0.000, 0.000, 0.000, 10:38:24.997, 1583739504997
42, -27090.96, -31708.83, -20765.04, -16575.92, -21063.26, -21320.59, -24389.08, -23223.24, 0.000, 0.000, 0.000, 10:38:24.997, 1583739504997
43, -27152.27, -31704.09, -20806.72, -16597.42, -21190.91, -21317.35, -24382.15, -23294.00, 0.000, 0.000, 0.000, 10:38:24.997, 1583739504997
44, -26426.00, -31617.53, -20643.00, -16442.86, -20371.98, -21214.76, -24001.32, -22912.53, 0.000, 0.000, 0.000, 10:38:24.997, 1583739504997
45, -25975.90, -31588.87, -20516.44, -16315.90, -19763.28, -21129.86, -23805.37, -22633.49, 0.002, -0.020, 0.980, 10:38:24.997, 1583739504997
46, -26439.90, -31654.99, -20591.10, -16362.97, -20190.38, -21163.62, -24065.74, -22836.04, 0.000, 0.000, 0.000, 10:38:24.998, 1583739504998
47, -27085.40, -31702.82, -20768.73, -16574.85, -21060.86, -21322.04, -24387.76, -23223.17, 0.000, 0.000, 0.000, 10:38:24.998, 1583739504998
48, -27159.65, -31694.82, -20817.68, -16613.83, -21197.34, -21328.12, -24389.08, -23305.47, 0.000, 0.000, 0.000, 10:38:24.998, 1583739504998
49, -26434.29, -31618.71, -20642.01, -16453.48, -20374.53, -21220.21, -24002.24, -22923.26, 0.000, 0.000, 0.000, 10:38:24.998, 1583739504998
50, -25977.89, -31591.78, -20504.26, -16303.67, -19755.34, -21118.51, -23796.65, -22631.28, 0.000, 0.000, 0.000, 10:38:24.998, 1583739504998
51, -26427.27, -31648.75, -20580.99, -16344.51, -20178.42, -21145.29, -24051.66, -22825.18, 0.000, 0.000, 0.000, 10:38:24.999, 1583739504999
52, -27079.85, -31699.11, -20763.56, -16568.05, -21057.78, -21315.47, -24380.34, -23222.14, 0.000, 0.000, 0.000, 10:38:24.999, 1583739504999
53, -27152.52, -31695.82, -20805.25, -16596.75, -21190.97, -21318.47, -24377.50, -23301.94, 0.000, 0.000, 0.000, 10:38:25.000, 1583739505000
54, -26434.47, -31615.80, -20633.79, -16437.56, -20370.33, -21214.17, -23995.00, -22923.19, 0.000, 0.000, 0.000, 10:38:25.000, 1583739505000
55, -25975.10, -31584.60, -20495.65, -16298.85, -19746.31, -21118.22, -23787.71, -22633.51, 0.002, -0.020, 0.974, 10:38:25.000, 1583739505000
56, -26431.59, -31649.73, -20578.29, -16355.91, -20173.14, -21155.30, -24047.26, -22834.07, 0.000, 0.000, 0.000, 10:38:25.000, 1583739505000
57, -27080.72, -31701.86, -20764.86, -16582.51, -21055.88, -21325.91, -24379.25, -23230.53, 0.000, 0.000, 0.000, 10:38:25.000, 1583739505000
58, -27149.59, -31692.60, -20802.23, -16598.27, -21188.51, -21317.62, -24373.82, -23301.89, 0.000, 0.000, 0.000, 10:38:25.001, 1583739505001
59, -26433.02, -31611.67, -20638.62, -16444.42, -20373.57, -21214.96, -23996.09, -22924.93, 0.000, 0.000, 0.000, 10:38:25.001, 1583739505001
60, -25972.84, -31584.60, -20505.65, -16313.60, -19754.38, -21125.13, -23793.56, -22639.16, 0.000, 0.000, 0.000, 10:38:25.001, 1583739505001
61, -26423.16, -31652.95, -20584.99, -16361.61, -20176.49, -21156.73, -24052.60, -22832.35, 0.000, 0.000, 0.000, 10:38:25.001, 1583739505001
62, -27076.77, -31701.68, -20766.36, -16582.07, -21056.59, -21321.06, -24382.15, -23220.29, 0.000, 0.000, 0.000, 10:38:25.001, 1583739505001
63, -27159.85, -31695.69, -20808.89, -16602.67, -21198.33, -21317.21, -24384.41, -23296.98, 0.000, 0.000, 0.000, 10:38:25.001, 1583739505001
64, -26444.44, -31614.80, -20636.87, -16438.46, -20380.05, -21207.00, -24001.73, -22915.21, 0.000, 0.000, 0.000, 10:38:25.002, 1583739505002
65, -25975.27, -31574.54, -20496.04, -16294.33, -19748.19, -21107.51, -23789.27, -22620.17, 0.008, -0.018, 0.970, 10:38:25.002, 1583739505002
66, -26426.29, -31655.01, -20575.41, -16342.75, -20166.03, -21138.92, -24044.75, -22815.95, 0.000, 0.000, 0.000, 10:38:25.002, 1583739505002
67, -27082.85, -31706.13, -20760.95, -16563.18, -21048.37, -21306.91, -24377.46, -23210.30, 0.000, 0.000, 0.000, 10:38:25.002, 1583739505002
68, -27163.47, -31695.09, -20803.17, -16593.11, -21192.52, -21309.84, -24380.37, -23292.84, 0.000, 0.000, 0.000, 10:38:25.002, 1583739505002
69, -26448.24, -31618.58, -20637.79, -16436.18, -20381.86, -21205.46, -24002.33, -22916.46, 0.000, 0.000, 0.000, 10:38:25.002, 1583739505002
70, -25975.92, -31583.26, -20497.49, -16292.52, -19746.34, -21106.17, -23788.94, -22619.81, 0.000, 0.000, 0.000, 10:38:25.003, 1583739505003
71, -26426.27, -31647.65, -20579.68, -16348.27, -20163.87, -21143.99, -24046.50, -22818.65, 0.000, 0.000, 0.000, 10:38:25.003, 1583739505003
72, -27076.50, -31694.19, -20765.57, -16578.38, -21046.33, -21317.17, -24378.00, -23216.67, 0.000, 0.000, 0.000, 10:38:25.003, 1583739505003
73, -27160.77, -31691.58, -20814.79, -16614.28, -21200.76, -21323.50, -24384.84, -23305.47, 0.000, 0.000, 0.000, 10:38:25.003, 1583739505003
74, -26448.39, -31615.24, -20642.44, -16449.79, -20386.18, -21213.53, -24001.50, -22925.83, 0.000, 0.000, 0.000, 10:38:25.003, 1583739505003
75, -25971.09, -31580.98, -20494.76, -16294.06, -19746.89, -21107.62, -23783.91, -22624.19, 0.006, -0.016, 0.972, 10:38:25.003, 1583739505003
76, -26421.41, -31648.15, -20571.81, -16339.86, -20156.27, -21139.21, -24039.01, -22817.35, 0.000, 0.000, 0.000, 10:38:25.004, 1583739505004
77, -27080.81, -31703.27, -20761.55, -16573.19, -21042.91, -21315.43, -24376.30, -23216.85, 0.000, 0.000, 0.000, 10:38:25.004, 1583739505004
78, -27171.07, -31696.65, -20810.97, -16616.82, -21201.54, -21324.59, -24386.22, -23308.38, 0.000, 0.000, 0.000, 10:38:25.004, 1583739505004
79, -26462.95, -31622.06, -20638.93, -16454.93, -20386.22, -21216.86, -24006.13, -22932.82, 0.000, 0.000, 0.000, 10:38:25.004, 1583739505004
80, -25987.19, -31600.83, -20490.65, -16296.39, -19744.39, -21109.97, -23787.11, -22629.22, 0.000, 0.000, 0.000, 10:38:25.004, 1583739505004
81, -26427.81, -31659.43, -20566.62, -16337.78, -20149.78, -21138.98, -24040.84, -22819.81, 0.000, 0.000, 0.000, 10:38:25.004, 1583739505004
82, -27082.83, -31708.83, -20753.75, -16564.34, -21034.44, -21313.75, -24376.88, -23219.97, 0.000, 0.000, 0.000, 10:38:25.004, 1583739505004
83, -27176.75, -31713.44, -20806.99, -16606.43, -21199.78, -21325.69, -24390.22, -23316.09, 0.000, 0.000, 0.000, 10:38:25.005, 1583739505005
84, -26468.71, -31631.47, -20642.97, -16454.10, -20393.89, -21223.81, -24013.71, -22944.22, 0.000, 0.000, 0.000, 10:38:25.005, 1583739505005
85, -25993.07, -31599.46, -20505.71, -16316.19, -19754.49, -21130.71, -23800.52, -22647.61, 0.000, 0.000, 0.000, 10:38:25.005, 1583739505005
86, -26432.81, -31659.99, -20580.61, -16363.22, -20156.76, -21160.93, -24052.64, -22835.93, 0.008, -0.014, 0.974, 10:38:25.005, 1583739505005
87, -27084.14, -31713.59, -20762.96, -16580.61, -21038.71, -21327.52, -24385.95, -23228.92, 0.000, 0.000, 0.000, 10:38:25.005, 1583739505005
88, -27176.03, -31710.44, -20809.72, -16607.21, -21202.95, -21325.57, -24395.39, -23312.69, 0.000, 0.000, 0.000, 10:38:25.005, 1583739505005
89, -26465.49, -31623.67, -20641.25, -16447.98, -20396.32, -21214.96, -24015.59, -22932.78, 0.000, 0.000, 0.000, 10:38:25.005, 1583739505005
90, -25986.16, -31591.73, -20503.57, -16309.73, -19753.22, -21119.69, -23800.23, -22634.16, 0.000, 0.000, 0.000, 10:38:25.005, 1583739505005
91, -26426.27, -31657.49, -20583.52, -16361.68, -20154.03, -21151.88, -24051.73, -22822.72, 0.000, 0.000, 0.000, 10:38:25.005, 1583739505005
92, -27083.25, -31710.11, -20768.79, -16581.37, -21040.57, -21319.25, -24385.57, -23215.68, 0.000, 0.000, 0.000, 10:38:25.005, 1583739505005
93, -27175.59, -31697.34, -20808.98, -16595.01, -21202.78, -21310.35, -24389.15, -23295.77, 0.000, 0.000, 0.000, 10:38:25.006, 1583739505006
94, -26465.74, -31625.64, -20640.88, -16434.03, -20395.97, -21201.17, -24008.41, -22920.39, 0.000, 0.000, 0.000, 10:38:25.006, 1583739505006
95, -25980.71, -31590.66, -20503.21, -16296.75, -19749.71, -21107.91, -23790.79, -22621.51, 0.000, 0.000, 0.000, 10:38:25.006, 1583739505006
96, -26419.58, -31659.50, -20584.01, -16347.89, -20151.24, -21142.11, -24046.43, -22812.28, 0.002, -0.016, 0.972, 10:38:25.006, 1583739505006
97, -27081.82, -31710.57, -20778.43, -16582.67, -21044.01, -21320.63, -24388.35, -23217.45, 0.000, 0.000, 0.000, 10:38:25.006, 1583739505006
98, -27173.51, -31702.73, -20822.21, -16616.80, -21212.34, -21325.57, -24396.28, -23308.55, 0.000, 0.000, 0.000, 10:38:25.006, 1583739505006
99, -26466.01, -31613.05, -20647.56, -16450.57, -20400.35, -21216.16, -24012.95, -22932.62, 0.000, 0.000, 0.000, 10:38:25.006, 1583739505006
100, -25984.66, -31591.42, -20508.60, -16309.20, -19753.69, -21123.27, -23794.82, -22634.61, 0.000, 0.000, 0.000, 10:38:25.006, 1583739505006
101, -26424.97, -31668.78, -20588.95, -16364.99, -20153.56, -21161.83, -24049.92, -22828.89, 0.000, 0.000, 0.000, 10:38:25.006, 1583739505006
102, -27086.29, -31727.12, -20774.96, -16593.98, -21039.88, -21335.95, -24385.33, -23229.29, 0.000, 0.000, 0.000, 10:38:25.006, 1583739505006
103, -27191.28, -31726.80, -20820.67, -16623.01, -21211.00, -21339.48, -24397.78, -23323.04, 0.000, 0.000, 0.000, 10:38:25.006, 1583739505006
104, -26489.63, -31645.69, -20649.01, -16451.76, -20405.51, -21224.75, -24017.82, -22946.97, 0.000, 0.000, 0.000, 10:38:25.006, 1583739505006
105, -25999.37, -31613.05, -20507.72, -16312.08, -19754.27, -21130.04, -23794.86, -22644.44, 0.000, 0.000, 0.000, 10:38:25.457, 1583739505457
106, -26431.52, -31674.57, -20587.39, -16365.72, -20148.58, -21165.29, -24044.98, -22834.05, 0.004, -0.022, 0.972, 10:38:25.457, 1583739505457
107, -27091.10, -31739.45, -20774.13, -16592.64, -21033.75, -21338.03, -24382.76, -23233.54, 0.000, 0.000, 0.000, 10:38:25.457, 1583739505457
108, -27198.14, -31735.43, -20822.93, -16623.15, -21213.62, -21339.97, -24398.74, -23328.16, 0.000, 0.000, 0.000, 10:38:25.458, 1583739505458
109, -26488.74, -31644.62, -20647.29, -16452.38, -20407.25, -21224.93, -24016.14, -22948.89, 0.000, 0.000, 0.000, 10:38:25.458, 1583739505458
110, -25998.30, -31607.29, -20507.88, -16307.47, -19755.46, -21131.03, -23796.56, -22646.23, 0.000, 0.000, 0.000, 10:38:25.458, 1583739505458
111, -26425.66, -31672.73, -20588.86, -16356.34, -20148.15, -21162.83, -24047.77, -22831.77, 0.000, 0.000, 0.000, 10:38:25.458, 1583739505458
112, -27085.89, -31727.70, -20777.49, -16585.42, -21039.74, -21336.75, -24389.20, -23232.56, 0.000, 0.000, 0.000, 10:38:25.458, 1583739505458
113, -27194.61, -31727.58, -20826.28, -16625.43, -21223.56, -21347.30, -24407.79, -23331.35, 0.000, 0.000, 0.000, 10:38:25.458, 1583739505458
114, -26489.97, -31646.63, -20658.49, -16470.40, -20425.34, -21242.07, -24030.96, -22961.32, 0.000, 0.000, 0.000, 10:38:25.458, 1583739505458
115, -25995.44, -31610.69, -20522.79, -16333.22, -19773.83, -21149.15, -23809.12, -22657.31, 0.000, 0.000, 0.000, 10:38:25.461, 1583739505461
116, -26419.89, -31667.30, -20595.10, -16366.19, -20156.82, -21170.39, -24054.12, -22833.78, -0.002, -0.020, 0.972, 10:38:25.462, 1583739505462
117, -27077.53, -31713.30, -20777.42, -16582.87, -21042.87, -21333.42, -24388.93, -23224.78, 0.000, 0.000, 0.000, 10:38:25.462, 1583739505462
118, -27192.04, -31726.98, -20829.37, -16622.54, -21228.81, -21341.67, -24408.84, -23325.77, 0.000, 0.000, 0.000, 10:38:25.462, 1583739505462
119, -26489.65, -31644.53, -20662.89, -16461.25, -20431.15, -21232.84, -24031.21, -22953.05, 0.000, 0.000, 0.000, 10:38:25.462, 1583739505462
120, -25989.91, -31599.78, -20517.25, -16312.15, -19770.92, -21131.74, -23803.94, -22642.16, 0.000, 0.000, 0.000, 10:38:25.462, 1583739505462
121, -26410.51, -31662.05, -20586.04, -16352.02, -20146.25, -21153.67, -24046.41, -22819.28, 0.000, 0.000, 0.000, 10:38:25.463, 1583739505463
122, -27070.64, -31721.01, -20767.81, -16574.96, -21030.62, -21323.47, -24381.73, -23216.18, 0.000, 0.000, 0.000, 10:38:25.463, 1583739505463
123, -27190.72, -31727.09, -20826.15, -16622.12, -21225.73, -21338.27, -24405.33, -23322.97, 0.000, 0.000, 0.000, 10:38:25.463, 1583739505463
124, -26492.00, -31646.40, -20658.78, -16454.77, -20426.83, -21225.39, -24026.72, -22951.02, 0.000, 0.000, 0.000, 10:38:25.463, 1583739505463
125, -25986.92, -31603.67, -20503.95, -16293.01, -19755.12, -21116.01, -23790.71, -22631.65, 0.000, 0.000, 0.000, 10:38:25.463, 1583739505463
126, -26406.26, -31664.51, -20570.71, -16334.45, -20125.89, -21141.55, -24030.83, -22807.07, 0.000, -0.020, 0.970, 10:38:25.463, 1583739505463
127, -27071.40, -31718.78, -20759.21, -16565.91, -21015.22, -21318.00, -24370.80, -23209.27, 0.000, 0.000, 0.000, 10:38:25.464, 1583739505464
128, -27189.69, -31715.47, -20814.44, -16608.22, -21211.18, -21328.28, -24391.25, -23312.64, 0.000, 0.000, 0.000, 10:38:25.464, 1583739505464
129, -26497.14, -31632.43, -20653.95, -16454.33, -20421.60, -21224.37, -24019.97, -22947.37, 0.000, 0.000, 0.000, 10:38:25.464, 1583739505464
130, -25995.57, -31611.76, -20515.50, -16317.22, -19763.79, -21133.06, -23797.83, -22642.14, 0.000, 0.000, 0.000, 10:38:25.464, 1583739505464
131, -26415.78, -31680.71, -20585.89, -16357.03, -20137.33, -21160.31, -24042.90, -22821.73, 0.000, 0.000, 0.000, 10:38:25.464, 1583739505464
132, -27078.22, -31729.62, -20766.16, -16578.51, -21020.68, -21330.29, -24378.11, -23219.35, 0.000, 0.000, 0.000, 10:38:25.464, 1583739505464
133, -27198.03, -31722.36, -20826.26, -16626.93, -21223.81, -21346.12, -24401.67, -23327.96, 0.000, 0.000, 0.000, 10:38:25.465, 1583739505465
134, -26505.68, -31650.14, -20665.69, -16477.84, -20440.18, -21244.21, -24032.01, -22968.45, 0.000, 0.000, 0.000, 10:38:25.465, 1583739505465
135, -25998.86, -31620.47, -20521.96, -16333.45, -19771.91, -21148.79, -23805.68, -22660.55, 0.000, 0.000, 0.000, 10:38:25.465, 1583739505465
136, -26415.83, -31684.11, -20589.04, -16362.97, -20139.05, -21168.31, -24048.44, -22831.59, 0.000, -0.022, 0.972, 10:38:25.465, 1583739505465
137, -27075.83, -31731.83, -20779.66, -16592.88, -21032.50, -21341.47, -24387.72, -23229.97, 0.000, 0.000, 0.000, 10:38:25.465, 1583739505465
138, -27201.45, -31725.13, -20839.40, -16633.54, -21237.98, -21352.44, -24413.74, -23336.56, 0.000, 0.000, 0.000, 10:38:25.465, 1583739505465
139, -26505.73, -31639.61, -20663.49, -16461.63, -20439.02, -21235.32, -24036.93, -22963.38, 0.000, 0.000, 0.000, 10:38:25.466, 1583739505466
140, -25989.94, -31604.34, -20515.91, -16313.84, -19767.30, -21132.14, -23802.33, -22644.35, 0.000, 0.000, 0.000, 10:38:25.466, 1583739505466
141, -26403.96, -31665.58, -20584.64, -16349.00, -20131.99, -21152.10, -24040.62, -22813.53, 0.000, 0.000, 0.000, 10:38:25.466, 1583739505466
142, -27066.29, -31715.76, -20764.30, -16571.47, -21016.88, -21319.25, -24377.13, -23206.61, 0.000, 0.000, 0.000, 10:38:25.466, 1583739505466
143, -27192.71, -31717.93, -20824.16, -16621.23, -21229.44, -21334.70, -24406.85, -23317.32, 0.000, 0.000, 0.000, 10:38:25.466, 1583739505466
144, -26497.08, -31636.19, -20656.32, -16456.25, -20438.37, -21222.76, -24031.81, -22948.80, 0.000, 0.000, 0.000, 10:38:25.467, 1583739505467
145, -25985.20, -31597.27, -20503.52, -16299.54, -19760.77, -21117.12, -23793.56, -22628.46, 0.000, 0.000, 0.000, 10:38:25.467, 1583739505467
146, -26399.24, -31663.61, -20573.57, -16337.16, -20123.70, -21140.26, -24031.99, -22800.48, 0.000, -0.022, 0.976, 10:38:25.467, 1583739505467
147, -27059.91, -31714.76, -20760.39, -16560.59, -21012.49, -21310.46, -24372.34, -23196.75, 0.000, 0.000, 0.000, 10:38:25.467, 1583739505467
148, -27189.67, -31715.27, -20816.76, -16605.45, -21221.44, -21322.98, -24401.94, -23306.50, 0.000, 0.000, 0.000, 10:38:25.467, 1583739505467
149, -26496.49, -31628.41, -20652.65, -16451.26, -20436.87, -21215.52, -24027.99, -22942.61, 0.000, 0.000, 0.000, 10:38:25.467, 1583739505467
150, -25981.85, -31585.29, -20508.11, -16310.60, -19763.99, -21122.13, -23792.31, -22630.13, 0.000, 0.000, 0.000, 10:38:25.468, 1583739505468
151, -26390.99, -31658.29, -20573.84, -16340.94, -20120.01, -21142.65, -24026.54, -22797.88, 0.000, 0.000, 0.000, 10:38:25.468, 1583739505468
152, -27054.66, -31716.83, -20755.72, -16562.02, -21008.63, -21314.06, -24364.29, -23196.46, 0.000, 0.000, 0.000, 10:38:25.468, 1583739505468
153, -27195.28, -31716.43, -20818.17, -16612.29, -21228.55, -21331.70, -24399.70, -23315.71, 0.000, 0.000, 0.000, 10:38:25.468, 1583739505468
154, -26513.88, -31641.49, -20655.29, -16457.79, -20443.08, -21225.48, -24028.84, -22953.68, 0.000, 0.000, 0.000, 10:38:25.468, 1583739505468
155, -25991.10, -31603.62, -20504.06, -16311.79, -19759.63, -21125.46, -23787.96, -22635.72, 0.000, 0.000, 0.000, 10:38:25.468, 1583739505468
156, -26396.18, -31669.13, -20571.99, -16347.15, -20111.81, -21146.92, -24023.68, -22806.09, 0.002, -0.022, 0.968, 10:38:25.469, 1583739505469
157, -27066.31, -31725.01, -20760.12, -16572.05, -21005.32, -21319.90, -24365.81, -23206.70, 0.000, 0.000, 0.000, 10:38:25.469, 1583739505469
158, -27207.08, -31725.77, -20817.19, -16625.00, -21226.09, -21338.25, -24397.51, -23324.98, 0.000, 0.000, 0.000, 10:38:25.469, 1583739505469
159, -26521.80, -31651.46, -20657.95, -16467.40, -20447.13, -21232.41, -24031.83, -22968.81, 0.000, 0.000, 0.000, 10:38:25.469, 1583739505469
160, -25995.35, -31609.17, -20507.21, -16310.13, -19763.34, -21129.21, -23790.88, -22647.59, 0.000, 0.000, 0.000, 10:38:25.469, 1583739505469
161, -26398.10, -31671.24, -20576.05, -16347.04, -20111.70, -21151.84, -24027.61, -22816.21, 0.000, 0.000, 0.000, 10:38:25.469, 1583739505469
162, -27066.89, -31728.90, -20765.84, -16576.28, -21004.87, -21328.95, -24374.22, -23219.68, 0.000, 0.000, 0.000, 10:38:25.469, 1583739505469
163, -27207.23, -31730.02, -20831.69, -16634.62, -21234.58, -21351.71, -24412.75, -23341.19, 0.000, 0.000, 0.000, 10:38:25.470, 1583739505470
164, -26522.38, -31638.69, -20675.03, -16480.16, -20459.94, -21248.51, -24048.84, -22982.78, 0.000, 0.000, 0.000, 10:38:25.470, 1583739505470
165, -25999.35, -31610.08, -20522.52, -16318.20, -19772.53, -21141.93, -23807.02, -22655.93, 0.000, 0.000, 0.000, 10:38:25.470, 1583739505470
166, -26393.70, -31676.53, -20585.22, -16345.85, -20118.87, -21157.11, -24039.10, -22816.12, 0.006, -0.024, 0.974, 10:38:25.470, 1583739505470
167, -27058.69, -31725.30, -20775.74, -16579.63, -21014.21, -21333.82, -24381.17, -23215.44, 0.000, 0.000, 0.000, 10:38:25.470, 1583739505470
168, -27205.69, -31730.49, -20848.05, -16643.87, -21251.28, -21359.35, -24423.37, -23339.82, 0.000, 0.000, 0.000, 10:38:25.470, 1583739505470
169, -26522.58, -31651.16, -20683.68, -16482.64, -20469.77, -21247.84, -24053.67, -22976.88, 0.000, 0.000, 0.000, 10:38:25.471, 1583739505471
170, -25992.26, -31606.35, -20526.10, -16322.94, -19777.16, -21141.11, -23805.41, -22647.64, 0.000, 0.000, 0.000, 10:38:25.471, 1583739505471
171, -26388.67, -31667.32, -20588.24, -16342.16, -20116.73, -21152.15, -24033.60, -22803.34, 0.000, 0.000, 0.000, 10:38:25.471, 1583739505471
172, -27050.55, -31716.63, -20761.10, -16550.08, -20995.42, -21310.04, -24365.48, -23190.72, 0.000, 0.000, 0.000, 10:38:25.471, 1583739505471
173, -27198.99, -31721.01, -20823.33, -16605.54, -21226.82, -21329.71, -24405.44, -23312.18, 0.000, 0.000, 0.000, 10:38:25.471, 1583739505471
174, -26525.51, -31649.69, -20671.90, -16468.92, -20461.03, -21236.26, -24046.92, -22964.49, 0.000, 0.000, 0.000, 10:38:25.471, 1583739505471
175, -25992.57, -31606.71, -20516.93, -16320.26, -19766.61, -21133.33, -23797.99, -22640.42, 0.000, 0.000, 0.000, 10:38:25.471, 1583739505471
176, -26379.15, -31652.19, -20565.08, -16327.17, -20089.88, -21133.91, -24017.62, -22788.43, 0.006, -0.018, 0.970, 10:38:25.471, 1583739505471
177, -27044.58, -31706.24, -20748.21, -16547.35, -20979.99, -21301.53, -24357.75, -23184.93, 0.000, 0.000, 0.000, 10:38:25.472, 1583739505472
178, -27196.22, -31724.39, -20817.45, -16600.82, -21221.75, -21321.64, -24399.74, -23308.15, 0.000, 0.000, 0.000, 10:38:25.472, 1583739505472
179, -26516.03, -31636.97, -20654.60, -16448.36, -20448.83, -21215.20, -24031.01, -22950.08, 0.000, 0.000, 0.000, 10:38:25.472, 1583739505472
180, -25985.33, -31596.34, -20498.54, -16304.39, -19753.89, -21116.01, -23782.05, -22626.40, 0.000, 0.000, 0.000, 10:38:25.472, 1583739505472
181, -26378.81, -31664.29, -20561.91, -16333.92, -20083.96, -21133.44, -24010.29, -22786.31, 0.000, 0.000, 0.000, 10:38:25.472, 1583739505472
182, -27046.30, -31722.18, -20750.40, -16561.17, -20977.78, -21308.05, -24352.94, -23187.10, 0.000, 0.000, 0.000, 10:38:25.472, 1583739505472
183, -27204.02, -31721.95, -20819.67, -16612.58, -21223.05, -21327.97, -24396.19, -23311.77, 0.000, 0.000, 0.000, 10:38:25.472, 1583739505472
184, -26526.11, -31642.11, -20655.18, -16446.93, -20448.45, -21213.46, -24025.87, -22951.69, 0.000, 0.000, 0.000, 10:38:25.472, 1583739505472
185, -25990.56, -31604.63, -20502.52, -16298.82, -19750.72, -21115.60, -23780.15, -22628.59, 0.000, 0.000, 0.000, 10:38:25.473, 1583739505473
186, -26376.51, -31667.28, -20555.71, -16317.35, -20076.31, -21124.03, -24004.74, -22781.84, 0.000, 0.000, 0.000, 10:38:25.473, 1583739505473
187, -27048.40, -31720.92, -20745.48, -16548.45, -20971.10, -21300.14, -24350.53, -23185.17, 0.000, -0.022, 0.974, 10:38:25.473, 1583739505473
188, -27206.52, -31724.75, -20817.39, -16610.59, -21222.00, -21325.96, -24396.64, -23316.36, 0.000, 0.000, 0.000, 10:38:25.473, 1583739505473
189, -26539.50, -31651.66, -20662.71, -16462.17, -20459.15, -21228.41, -24036.04, -22969.03, 0.000, 0.000, 0.000, 10:38:25.473, 1583739505473
190, -26003.24, -31612.18, -20514.12, -16324.39, -19764.91, -21137.64, -23792.34, -22649.29, 0.000, 0.000, 0.000, 10:38:25.473, 1583739505473
191, -26386.93, -31668.24, -20578.40, -16353.63, -20092.14, -21156.51, -24022.40, -22808.70, 0.000, 0.000, 0.000, 10:38:25.473, 1583739505473
192, -27056.96, -31730.47, -20759.56, -16567.18, -20979.73, -21322.33, -24365.37, -23205.16, 0.000, 0.000, 0.000, 10:38:25.473, 1583739505473
193, -27215.08, -31736.01, -20826.33, -16624.13, -21232.90, -21343.93, -24410.59, -23333.57, 0.000, 0.000, 0.000, 10:38:25.474, 1583739505474
194, -26542.18, -31649.51, -20670.00, -16466.80, -20470.38, -21238.45, -24047.12, -22979.45, 0.000, 0.000, 0.000, 10:38:25.474, 1583739505474
195, -25999.53, -31607.96, -20516.73, -16318.27, -19772.04, -21140.32, -23798.39, -22650.70, 0.000, 0.000, 0.000, 10:38:25.474, 1583739505474
196, -26381.32, -31677.43, -20580.41, -16347.19, -20098.98, -21155.84, -24027.99, -22804.79, 0.000, 0.000, 0.000, 10:38:25.474, 1583739505474
197, -27046.53, -31730.18, -20770.11, -16577.80, -20993.99, -21329.20, -24372.95, -23205.36, 0.002, -0.024, 0.972, 10:38:25.474, 1583739505474
198, -27210.30, -31732.23, -20839.87, -16637.05, -21246.27, -21350.88, -24418.03, -23334.75, 0.000, 0.000, 0.000, 10:38:25.475, 1583739505475
199, -26540.88, -31651.81, -20678.07, -16473.55, -20483.27, -21236.93, -24050.74, -22976.01, 0.000, 0.000, 0.000, 10:38:25.475, 1583739505475
200, -25992.22, -31602.48, -20520.26, -16320.26, -19776.42, -21133.02, -23796.63, -22642.27, 0.000, 0.000, 0.000, 10:38:25.475, 1583739505475
201, -26370.01, -31660.89, -20579.74, -16342.01, -20092.72, -21143.88, -24019.52, -22790.24, 0.000, 0.000, 0.000, 10:38:25.475, 1583739505475
202, -27040.00, -31714.26, -20756.16, -16554.01, -20979.06, -21307.04, -24359.62, -23181.55, 0.000, 0.000, 0.000, 10:38:25.476, 1583739505476
203, -27205.45, -31718.42, -20816.89, -16607.97, -21232.14, -21324.53, -24404.06, -23308.94, 0.000, 0.000, 0.000, 10:38:25.476, 1583739505476
204, -26541.53, -31633.75, -20661.71, -16459.18, -20473.10, -21221.06, -24043.68, -22960.58, 0.000, 0.000, 0.000, 10:38:25.476, 1583739505476
205, -25991.77, -31586.28, -20511.90, -16306.76, -19766.34, -21119.25, -23791.22, -22628.73, 0.000, 0.000, 0.000, 10:38:25.476, 1583739505476
206, -26365.24, -31657.96, -20571.34, -16331.84, -20079.18, -21131.63, -24011.16, -22778.35, 0.000, 0.000, 0.000, 10:38:25.476, 1583739505476
207, -27038.99, -31711.22, -20757.88, -16561.23, -20975.14, -21307.09, -24357.72, -23183.05, 0.004, -0.022, 0.972, 10:38:25.476, 1583739505476
208, -27207.03, -31715.96, -20822.44, -16613.02, -21234.74, -21327.27, -24403.54, -23314.37, 0.000, 0.000, 0.000, 10:38:25.476, 1583739505476
209, -26544.30, -31647.34, -20668.68, -16469.12, -20479.43, -21230.04, -24043.41, -22971.09, 0.000, 0.000, 0.000, 10:38:25.476, 1583739505476
210, -26002.54, -31615.51, -20525.52, -16333.98, -19779.33, -21143.43, -23798.68, -22651.08, 0.000, 0.000, 0.000, 10:38:25.477, 1583739505477
211, -26372.98, -31670.86, -20581.35, -16347.28, -20085.19, -21150.70, -24017.55, -22796.12, 0.000, 0.000, 0.000, 10:38:25.477, 1583739505477
212, -27041.07, -31717.91, -20759.05, -16556.45, -20969.58, -21312.07, -24356.47, -23187.41, 0.000, 0.000, 0.000, 10:38:25.477, 1583739505477
213, -27218.63, -31727.88, -20827.04, -16621.05, -21235.27, -21338.94, -24408.91, -23325.45, 0.000, 0.000, 0.000, 10:38:25.477, 1583739505477
214, -26559.06, -31650.76, -20675.27, -16473.84, -20488.10, -21239.43, -24055.48, -22983.13, 0.000, 0.000, 0.000, 10:38:25.477, 1583739505477
215, -26003.68, -31606.42, -20522.28, -16324.82, -19778.16, -21141.71, -23802.08, -22653.58, 0.000, 0.000, 0.000, 10:38:25.477, 1583739505477
216, -26370.39, -31670.90, -20572.08, -16336.87, -20078.35, -21146.72, -24017.28, -22794.89, 0.000, 0.000, 0.000, 10:38:25.477, 1583739505477
217, -27044.31, -31730.36, -20756.88, -16558.44, -20971.26, -21318.89, -24365.30, -23194.90, 0.000, -0.016, 0.970, 10:38:25.477, 1583739505477
218, -27222.84, -31736.66, -20831.74, -16624.33, -21245.82, -21349.02, -24420.22, -23336.27, 0.000, 0.000, 0.000, 10:38:25.478, 1583739505478
219, -26562.28, -31657.27, -20679.14, -16476.30, -20494.80, -21248.28, -24063.17, -22992.50, 0.000, 0.000, 0.000, 10:38:25.478, 1583739505478
220, -26012.40, -31611.20, -20526.41, -16329.47, -19784.53, -21152.37, -23810.35, -22662.23, 0.000, 0.000, 0.000, 10:38:25.478, 1583739505478
221, -26385.27, -31687.78, -20586.00, -16357.07, -20091.94, -21165.98, -24030.49, -22810.56, 0.000, 0.000, 0.000, 10:38:25.478, 1583739505478
222, -27050.53, -31732.26, -20771.21, -16585.13, -20984.15, -21336.21, -24375.07, -23208.89, 0.000, 0.000, 0.000, 10:38:25.478, 1583739505478
223, -27223.57, -31729.75, -20838.24, -16632.47, -21253.54, -21351.99, -24424.58, -23339.00, 0.000, 0.000, 0.000, 10:38:25.478, 1583739505478
224, -26563.64, -31653.76, -20678.92, -16466.28, -20498.92, -21236.15, -24062.75, -22986.00, 0.000, 0.000, 0.000, 10:38:25.478, 1583739505478
225, -26005.07, -31605.70, -20515.75, -16318.09, -19777.92, -21135.34, -23799.20, -22648.11, 0.000, 0.000, 0.000, 10:38:25.937, 1583739505937
226, -26370.43, -31668.84, -20569.17, -16337.40, -20072.69, -21144.10, -24013.44, -22787.13, 0.000, 0.000, 0.000, 10:38:25.938, 1583739505938
227, -27041.52, -31722.85, -20753.50, -16552.38, -20965.06, -21308.95, -24358.62, -23181.24, 0.000, -0.020, 0.966, 10:38:25.938, 1583739505938
228, -27225.61, -31729.91, -20827.04, -16610.23, -21244.93, -21334.05, -24417.31, -23321.94, 0.000, 0.000, 0.000, 10:38:25.938, 1583739505938
229, -26567.33, -31651.23, -20671.09, -16452.60, -20491.74, -21224.48, -24059.91, -22973.95, 0.000, 0.000, 0.000, 10:38:25.938, 1583739505938
230, -26003.79, -31604.63, -20514.47, -16303.54, -19772.06, -21122.98, -23798.26, -22635.28, 0.000, 0.000, 0.000, 10:38:25.938, 1583739505938
231, -26370.79, -31672.04, -20573.80, -16330.34, -20069.29, -21136.28, -24015.43, -22780.32, 0.000, 0.000, 0.000, 10:38:25.939, 1583739505939
232, -27042.77, -31722.53, -20750.73, -16547.91, -20956.59, -21302.26, -24356.96, -23175.14, 0.000, 0.000, 0.000, 10:38:25.939, 1583739505939
233, -27227.91, -31730.33, -20825.01, -16613.94, -21240.79, -21331.10, -24417.25, -23318.19, 0.000, 0.000, 0.000, 10:38:25.939, 1583739505939
234, -26571.80, -31646.49, -20671.94, -16462.71, -20493.62, -21226.87, -24061.18, -22975.63, 0.000, 0.000, 0.000, 10:38:25.939, 1583739505939
235, -26006.19, -31608.99, -20519.73, -16315.14, -19773.76, -21129.30, -23800.58, -22640.64, 0.000, 0.000, 0.000, 10:38:25.939, 1583739505939
236, -26364.87, -31670.01, -20576.39, -16339.84, -20063.82, -21141.80, -24014.89, -22782.60, 0.000, 0.000, 0.000, 10:38:25.940, 1583739505940
237, -27038.52, -31724.97, -20757.35, -16565.97, -20958.54, -21315.00, -24359.18, -23183.70, 0.002, -0.022, 0.968, 10:38:25.940, 1583739505940
238, -27220.51, -31729.17, -20823.46, -16619.93, -21240.59, -21335.52, -24412.22, -23322.35, 0.000, 0.000, 0.000, 10:38:25.940, 1583739505940
239, -26568.31, -31652.10, -20670.60, -16460.27, -20493.53, -21226.89, -24056.78, -22979.96, 0.000, 0.000, 0.000, 10:38:25.944, 1583739505944
240, -26004.62, -31606.48, -20520.71, -16316.97, -19775.19, -21134.65, -23799.76, -22648.49, 0.000, 0.000, 0.000, 10:38:25.944, 1583739505944
241, -26362.96, -31669.11, -20583.03, -16344.82, -20070.90, -21151.32, -24018.33, -22793.46, 0.000, 0.000, 0.000, 10:38:25.945, 1583739505945
242, -27035.93, -31725.77, -20769.46, -16570.93, -20965.82, -21323.88, -24367.13, -23195.68, 0.000, 0.000, 0.000, 10:38:25.945, 1583739505945
243, -27229.21, -31734.85, -20837.53, -16636.83, -21252.11, -21353.45, -24427.57, -23342.91, 0.000, 0.000, 0.000, 10:38:25.945, 1583739505945
244, -26576.18, -31653.89, -20685.44, -16479.61, -20511.32, -21247.34, -24071.80, -22998.25, 0.000, 0.000, 0.000, 10:38:25.945, 1583739505945
245, -25998.03, -31603.18, -20523.88, -16325.62, -19784.38, -21145.96, -23802.46, -22655.10, 0.000, 0.000, 0.000, 10:38:25.946, 1583739505946
246, -26351.19, -31663.77, -20574.76, -16344.42, -20066.19, -21153.40, -24013.51, -22791.20, 0.000, 0.000, 0.000, 10:38:25.946, 1583739505946
247, -27030.72, -31723.18, -20765.98, -16579.76, -20965.40, -21330.54, -24367.58, -23196.13, 0.002, -0.014, 0.974, 10:38:25.946, 1583739505946
248, -27226.03, -31724.68, -20843.18, -16645.79, -21260.69, -21362.39, -24433.52, -23344.74, 0.000, 0.000, 0.000, 10:38:25.946, 1583739505946
249, -26573.14, -31639.70, -20684.55, -16476.97, -20515.41, -21246.88, -24073.79, -22995.85, 0.000, 0.000, 0.000, 10:38:25.947, 1583739505947
250, -25997.94, -31600.96, -20524.24, -16322.58, -19786.90, -21142.94, -23804.94, -22651.01, 0.000, 0.000, 0.000, 10:38:25.947, 1583739505947
251, -26351.34, -31666.47, -20577.87, -16344.11, -20069.21, -21151.50, -24017.08, -22785.97, 0.000, 0.000, 0.000, 10:38:25.947, 1583739505947
252, -27027.97, -31718.91, -20762.00, -16563.58, -20959.34, -21319.25, -24363.60, -23181.37, 0.000, 0.000, 0.000, 10:38:25.948, 1583739505948
253, -27223.89, -31721.48, -20836.16, -16621.88, -21256.22, -21343.43, -24426.23, -23326.19, 0.000, 0.000, 0.000, 10:38:25.948, 1583739505948
254, -26579.17, -31649.33, -20684.75, -16469.64, -20521.00, -21235.59, -24073.61, -22986.35, 0.000, 0.000, 0.000, 10:38:25.948, 1583739505948
255, -26005.61, -31598.19, -20523.91, -16314.14, -19786.28, -21131.49, -23803.76, -22641.20, 0.000, 0.000, 0.000, 10:38:25.948, 1583739505948
0, -26351.10, -31654.40, -20568.14, -16326.07, -20055.82, -21134.06, -24007.87, -22771.42, 0.000, 0.000, 0.000, 10:38:25.948, 1583739505948
1, -27026.32, -31710.91, -20753.57, -16550.19, -20953.06, -21304.92, -24357.86, -23171.70, 0.004, -0.018, 0.972, 10:38:25.949, 1583739505949
2, -27225.83, -31717.75, -20828.34, -16621.16, -21253.98, -21336.79, -24422.25, -23323.75, 0.000, 0.000, 0.000, 10:38:25.949, 1583739505949
3, -26585.32, -31646.69, -20676.12, -16463.71, -20516.06, -21229.87, -24067.64, -22986.18, 0.000, 0.000, 0.000, 10:38:25.949, 1583739505949
4, -26010.81, -31602.06, -20511.53, -16303.18, -19777.54, -21124.32, -23794.41, -22638.76, 0.000, 0.000, 0.000, 10:38:25.949, 1583739505949
5, -26357.00, -31661.33, -20556.65, -16315.86, -20044.28, -21127.61, -24000.21, -22769.54, 0.000, 0.000, 0.000, 10:38:25.949, 1583739505949
6, -27032.56, -31716.77, -20743.16, -16541.50, -20936.34, -21301.10, -24349.39, -23171.52, 0.000, 0.000, 0.000, 10:38:25.950, 1583739505950
7, -27233.83, -31722.89, -20827.18, -16618.23, -21244.95, -21338.12, -24417.89, -23328.09, 0.000, 0.000, 0.000, 10:38:25.950, 1583739505950
8, -26587.27, -31657.31, -20672.70, -16464.61, -20509.89, -21229.60, -24060.45, -22988.99, 0.000, 0.000, 0.000, 10:38:25.950, 1583739505950
9, -26008.04, -31608.32, -20506.61, -16313.84, -19768.60, -21130.04, -23785.92, -22644.98, 0.000, 0.000, 0.000, 10:38:25.950, 1583739505950
10, -26353.06, -31673.14, -20559.07, -16332.11, -20040.48, -21140.66, -23993.61, -22779.69, 0.000, 0.000, 0.000, 10:38:25.950, 1583739505950
11, -27028.55, -31723.29, -20743.80, -16550.33, -20932.92, -21309.19, -24341.79, -23176.72, 0.004, -0.018, 0.972, 10:38:25.951, 1583739505951
12, -27235.20, -31732.48, -20828.07, -16620.85, -21246.36, -21344.37, -24415.39, -23332.18, 0.000, 0.000, 0.000, 10:38:25.951, 1583739505951
13, -26591.09, -31656.57, -20678.16, -16477.26, -20520.69, -21244.08, -24065.14, -22998.85, 0.000, 0.000, 0.000, 10:38:25.951, 1583739505951
14, -26007.82, -31609.14, -20519.06, -16327.10, -19784.65, -21146.81, -23795.58, -22654.77, 0.000, 0.000, 0.000, 10:38:25.951, 1583739505951
15, -26348.21, -31670.32, -20566.71, -16334.10, -20048.98, -21149.20, -24000.56, -22783.63, 0.000, 0.000, 0.000, 10:38:25.951, 1583739505951
16, -27028.67, -31725.08, -20756.88, -16559.24, -20946.40, -21322.76, -24354.06, -23186.89, 0.000, 0.000, 0.000, 10:38:25.951, 1583739505951
17, -27238.93, -31733.64, -20838.98, -16633.72, -21263.84, -21357.54, -24427.60, -23343.87, 0.000, 0.000, 0.000, 10:38:25.951, 1583739505951
18, -26601.35, -31664.20, -20693.45, -16491.25, -20541.07, -21257.60, -24081.19, -23012.62, 0.000, 0.000, 0.000, 10:38:25.952, 1583739505952
19, -26014.79, -31614.35, -20532.47, -16334.92, -19802.39, -21155.99, -23809.05, -22663.71, 0.000, 0.000, 0.000, 10:38:25.952, 1583739505952
20, -26349.71, -31671.01, -20577.19, -16337.27, -20057.90, -21153.85, -24009.15, -22785.95, 0.000, 0.000, 0.000, 10:38:25.952, 1583739505952
21, -27022.56, -31717.95, -20761.04, -16557.75, -20949.44, -21322.16, -24359.82, -23182.60, 0.000, 0.000, 0.000, 10:38:25.952, 1583739505952
22, -27230.95, -31734.02, -20838.38, -16629.72, -21266.72, -21354.95, -24432.27, -23337.90, 0.004, -0.018, 0.970, 10:38:25.952, 1583739505952
23, -26595.76, -31662.50, -20686.74, -16478.89, -20540.49, -21247.72, -24080.58, -23002.22, 0.000, 0.000, 0.000, 10:38:25.953, 1583739505953
24, -26009.85, -31609.54, -20527.21, -16326.47, -19798.41, -21147.23, -23804.58, -22653.58, 0.000, 0.000, 0.000, 10:38:25.953, 1583739505953
25, -26343.14, -31670.50, -20576.75, -16336.75, -20053.80, -21149.31, -24005.37, -22778.30, 0.000, 0.000, 0.000, 10:38:25.953, 1583739505953
26, -27021.63, -31727.41, -20763.16, -16559.04, -20948.72, -21319.50, -24356.74, -23176.88, 0.000, 0.000, 0.000, 10:38:25.953, 1583739505953
27, -27235.24, -31735.10, -20839.47, -16627.04, -21268.91, -21350.18, -24430.39, -23333.88, 0.000, 0.000, 0.000, 10:38:25.953, 1583739505953
28, -26601.55, -31656.46, -20688.80, -16476.34, -20541.56, -21245.06, -24082.71, -23001.17, 0.000, 0.000, 0.000, 10:38:25.953, 1583739505953
29, -26009.67, -31602.50, -20529.54, -16324.19, -19798.86, -21145.06, -23805.97, -22650.94, 0.000, 0.000, 0.000, 10:38:25.954, 1583739505954
30, -26335.21, -31666.21, -20574.53, -16334.59, -20047.35, -21143.72, -24000.19, -22770.62, 0.000, 0.000, 0.000, 10:38:25.954, 1583739505954
31, -27014.36, -31725.26, -20757.66, -16548.98, -20934.82, -21309.46, -24348.96, -23167.11, 0.000, 0.000, 0.000, 10:38:25.954, 1583739505954
32, -27230.30, -31731.09, -20834.75, -16618.50, -21257.60, -21342.36, -24421.89, -23326.73, 0.004, -0.016, 0.970, 10:38:25.954, 1583739505954
33, -26596.38, -31656.91, -20683.95, -16470.75, -20536.31, -21238.54, -24072.25, -22997.89, 0.000, 0.000, 0.000, 10:38:25.954, 1583739505954
34, -26007.95, -31603.89, -20522.95, -16313.93, -19790.39, -21134.89, -23794.79, -22646.36, 0.000, 0.000, 0.000, 10:38:25.955, 1583739505955
35, -26334.65, -31661.58, -20560.16, -16314.67, -20031.23, -21129.30, -23988.65, -22762.90, 0.000, 0.000, 0.000, 10:38:25.955, 1583739505955
36, -27013.56, -31718.78, -20746.49, -16541.94, -20925.03, -21304.59, -24341.25, -23165.21, 0.000, 0.000, 0.000, 10:38:25.955, 1583739505955
37, -27235.55, -31741.29, -20830.75, -16624.42, -21257.34, -21345.63, -24417.49, -23331.91, 0.000, 0.000, 0.000, 10:38:25.955, 1583739505955
38, -26606.76, -31663.19, -20685.29, -16475.36, -20539.96, -21241.91, -24071.96, -23003.70, 0.000, 0.000, 0.000, 10:38:25.955, 1583739505955
39, -26014.61, -31615.60, -20522.79, -16324.39, -19792.07, -21143.92, -23795.80, -22655.19, 0.000, 0.000, 0.000, 10:38:25.956, 1583739505956
40, -26332.81, -31666.88, -20564.52, -16332.55, -20033.29, -21143.19, -23992.09, -22773.28, 0.000, 0.000, 0.000, 10:38:25.956, 1583739505956
41, -27014.52, -31725.04, -20753.86, -16550.59, -20929.66, -21314.18, -24348.45, -23174.15, 0.000, 0.000, 0.000, 10:38:25.956, 1583739505956
42, -27238.62, -31734.34, -20840.39, -16630.75, -21265.29, -21356.46, -24430.79, -23342.13, 0.002, -0.018, 0.970, 10:38:25.956, 1583739505956
43, -26609.93, -31663.35, -20693.60, -16486.85, -20551.29, -21255.61, -24086.11, -23015.97, 0.000, 0.000, 0.000, 10:38:25.956, 1583739505956
44, -26011.86, -31615.22, -20530.95, -16335.24, -19801.16, -21156.86, -23806.48, -22664.65, 0.000, 0.000, 0.000, 10:38:25.956, 1583739505956
45, -26333.57, -31669.18, -20571.63, -16333.07, -20038.43, -21151.37, -23999.56, -22777.57, 0.000, 0.000, 0.000, 10:38:25.957, 1583739505957
46, -27008.77, -31728.21, -20749.21, -16542.19, -20923.45, -21312.70, -24346.08, -23169.48, 0.000, 0.000, 0.000, 10:38:25.957, 1583739505957
47, -27232.09, -31734.96, -20832.92, -16619.68, -21259.08, -21349.87, -24426.34, -23334.82, 0.000, 0.000, 0.000, 10:38:25.957, 1583739505957
48, -26609.62, -31658.25, -20686.79, -16481.79, -20548.49, -21251.01, -24085.12, -23012.57, 0.000, 0.000, 0.000, 10:38:25.957, 1583739505957
49, -26012.38, -31603.31, -20527.13, -16327.97, -19799.33, -21151.19, -23805.19, -22660.02, 0.000, 0.000, 0.000, 10:38:25.957, 1583739505957
50, -26327.76, -31662.34, -20569.44, -16323.43, -20035.92, -21143.52, -23997.59, -22770.59, 0.000, 0.000, 0.000, 10:38:25.957, 1583739505957
51, -27005.47, -31725.91, -20753.33, -16540.27, -20925.86, -21310.64, -24348.74, -23165.59, 0.000, 0.000, 0.000, 10:38:25.957, 1583739505957
52, -27231.15, -31731.03, -20835.78, -16619.66, -21261.40, -21347.12, -24428.02, -23330.73, 0.002, -0.020, 0.970, 10:38:25.958, 1583739505958
53, -26607.11, -31655.57, -20690.09, -16475.47, -20553.19, -21245.31, -24084.58, -23006.70, 0.000, 0.000, 0.000, 10:38:25.958, 1583739505958
54, -26010.63, -31605.21, -20527.42, -16320.44, -19799.55, -21145.02, -23803.60, -22653.16, 0.000, 0.000, 0.000, 10:38:25.958, 1583739505958
55, -26326.91, -31662.47, -20567.94, -16321.06, -20031.50, -21138.47, -23994.57, -22764.07, 0.000, 0.000, 0.000, 10:38:25.958, 1583739505958
56, -27002.83, -31720.34, -20751.18, -16541.45, -20921.05, -21307.49, -24346.88, -23160.97, 0.000, 0.000, 0.000, 10:38:25.958, 1583739505958
57, -27233.70, -31733.06, -20839.56, -16629.68, -21266.54, -21353.02, -24433.38, -23333.12, 0.000, 0.000, 0.000, 10:38:25.958, 1583739505958
58, -26612.30, -31657.60, -20697.36, -16483.07, -20564.45, -21249.36, -24091.58, -23010.63, 0.000, 0.000, 0.000, 10:38:25.958, 1583739505958
59, -26009.58, -31604.18, -20529.79, -16321.56, -19804.52, -21144.88, -23806.37, -22653.25, 0.000, 0.000, 0.000, 10:38:25.958, 1583739505958
60, -26321.95, -31661.16, -20567.31, -16323.14, -20030.43, -21140.03, -23995.47, -22764.47, 0.000, 0.000, 0.000, 10:38:25.959, 1583739505959
61, -27002.56, -31720.07, -20753.01, -16548.22, -20921.52, -21312.16, -24348.47, -23164.72, 0.000, 0.000, 0.000, 10:38:25.959, 1583739505959
62, -27241.81, -31733.26, -20843.04, -16633.38, -21273.85, -21358.21, -24437.79, -23340.63, 0.000, -0.020, 0.968, 10:38:25.959, 1583739505959
63, -26628.62, -31665.89, -20703.68, -16490.24, -20576.66, -21258.25, -24101.15, -23022.74, 0.000, 0.000, 0.000, 10:38:25.959, 1583739505959
64, -26021.16, -31619.02, -20536.71, -16325.87, -19812.18, -21151.41, -23812.25, -22662.03, 0.000, 0.000, 0.000, 10:38:25.959, 1583739505959
65, -26326.15, -31674.14, -20566.09, -16321.96, -20024.01, -21141.91, -23991.85, -22765.92, 0.000, 0.000, 0.000, 10:38:25.959, 1583739505959
66, -27008.46, -31724.97, -20747.09, -16541.21, -20911.60, -21311.63, -24342.55, -23164.05, 0.000, 0.000, 0.000, 10:38:25.959, 1583739505959
67, -27245.23, -31734.11, -20832.70, -16622.61, -21263.41, -21352.75, -24427.86, -23336.54, 0.000, 0.000, 0.000, 10:38:25.959, 1583739505959
68, -26629.69, -31666.01, -20693.71, -16482.98, -20565.15, -21254.77, -24090.31, -23018.34, 0.000, 0.000, 0.000, 10:38:25.960, 1583739505960
69, -26024.74, -31622.78, -20535.91, -16331.77, -19807.69, -21157.74, -23808.76, -22663.01, 0.000, 0.000, 0.000, 10:38:25.960, 1583739505960
70, -26333.55, -31678.68, -20568.16, -16328.82, -20024.55, -21149.04, -23991.94, -22768.45, 0.000, 0.000, 0.000, 10:38:25.960, 1583739505960
71, -27014.09, -31739.12, -20748.95, -16549.07, -20913.77, -21316.28, -24342.19, -23166.08, 0.000, 0.000, 0.000, 10:38:25.960, 1583739505960
72, -27255.49, -31749.22, -20840.68, -16635.04, -21271.44, -21361.94, -24435.02, -23344.25, -0.002, -0.022, 0.974, 10:38:25.960, 1583739505960
73, -26641.27, -31674.52, -20697.45, -16486.82, -20572.86, -21257.83, -24096.32, -23022.05, 0.000, 0.000, 0.000, 10:38:25.960, 1583739505960
74, -26029.32, -31629.84, -20531.69, -16328.49, -19811.56, -21153.44, -23808.23, -22661.18, 0.000, 0.000, 0.000, 10:38:25.960, 1583739505960
75, -26333.08, -31682.59, -20570.11, -16326.92, -20028.10, -21145.87, -23995.54, -22766.68, 0.000, 0.000, 0.000, 10:38:25.960, 1583739505960
76, -27015.88, -31741.29, -20756.66, -16548.02, -20921.41, -21316.97, -24352.69, -23164.74, 0.000, 0.000, 0.000, 10:38:25.961, 1583739505961
77, -27257.71, -31748.77, -20849.06, -16634.46, -21282.88, -21360.76, -24444.29, -23341.59, 0.000, 0.000, 0.000, 10:38:25.961, 1583739505961
78, -26644.93, -31677.88, -20700.71, -16479.96, -20580.21, -21249.22, -24100.19, -23016.13, 0.000, 0.000, 0.000, 10:38:25.961, 1583739505961
79, -26036.21, -31632.39, -20532.36, -16323.46, -19810.98, -21147.57, -23809.77, -22655.46, 0.000, 0.000, 0.000, 10:38:25.961, 1583739505961
80, -26337.33, -31688.94, -20567.49, -16327.32, -20019.43, -21141.89, -23990.28, -22760.20, 0.000, 0.000, 0.000, 10:38:25.961, 1583739505961
81, -27024.00, -31752.98, -20746.71, -16541.88, -20905.65, -21307.72, -24341.09, -23156.79, 0.000, 0.000, 0.000, 10:38:25.962, 1583739505962
82, -27270.40, -31767.55, -20837.59, -16621.67, -21269.56, -21348.78, -24432.85, -23333.61, 0.002, -0.026, 0.968, 10:38:25.962, 1583739505962
83, -26660.87, -31695.62, -20699.77, -16480.66, -20579.07, -21247.72, -24097.46, -23016.17, 0.000, 0.000, 0.000, 10:38:25.962, 1583739505962
84, -26053.35, -31651.79, -20530.57, -16325.62, -19808.09, -21148.55, -23807.15, -22656.93, 0.000, 0.000, 0.000, 10:38:25.962, 1583739505962
85, -26353.98, -31707.38, -20560.90, -16321.96, -20012.37, -21140.37, -23985.92, -22759.19, 0.000, 0.000, 0.000, 10:38:25.962, 1583739505962
86, -27039.13, -31774.12, -20738.57, -16533.65, -20898.43, -21302.89, -24335.17, -23151.31, 0.000, 0.000, 0.000, 10:38:25.963, 1583739505963
87, -27294.52, -31803.45, -20833.81, -16622.05, -21268.60, -21349.16, -24431.64, -23332.63, 0.000, 0.000, 0.000, 10:38:25.963, 1583739505963
88, -26698.33, -31747.63, -20699.93, -16484.90, -20582.13, -21254.41, -24099.78, -23021.98, 0.000, 0.000, 0.000, 10:38:25.963, 1583739505963
89, -26095.13, -31710.06, -20541.79, -16340.15, -19818.82, -21161.56, -23814.02, -22667.73, 0.000, 0.000, 0.000, 10:38:25.963, 1583739505963
90, -26399.06, -31774.39, -20579.65, -16338.14, -20025.02, -21156.17, -23996.63, -22772.78, 0.000, 0.000, 0.000, 10:38:26.417, 1583739506417
91, -27093.93, -31850.81, -20755.09, -16547.58, -20908.54, -21319.70, -24344.58, -23168.61, 0.000, 0.000, 0.000, 10:38:26.418, 1583739506418
92, -27355.83, -31874.77, -20841.46, -16633.81, -21277.23, -21364.45, -24437.23, -23349.17, -0.002, -0.022, 0.974, 10:38:26.418, 1583739506418
93, -26770.62, -31822.94, -20700.67, -16493.35, -20589.73, -21264.94, -24104.99, -23036.42, 0.000, 0.000, 0.000, 10:38:26.418, 1583739506418
94, -26171.08, -31792.70, -20536.29, -16338.92, -19821.28, -21166.68, -23816.97, -22676.58, 0.000, 0.000, 0.000, 10:38:26.418, 1583739506418
95, -26475.13, -31868.96, -20572.21, -16333.45, -20020.81, -21156.26, -23998.51, -22774.77, 0.000, 0.000, 0.000, 10:38:26.418, 1583739506418
96, -27174.11, -31951.84, -20755.99, -16552.18, -20913.14, -21324.30, -24355.40, -23172.21, 0.000, 0.000, 0.000, 10:38:26.418, 1583739506418
97, -27438.02, -31974.35, -20845.06, -16633.50, -21286.37, -21367.06, -24451.60, -23352.01, 0.000, 0.000, 0.000, 10:38:26.419, 1583739506419
98, -26845.94, -31904.46, -20704.20, -16480.25, -20598.67, -21261.20, -24117.42, -23037.25, 0.000, 0.000, 0.000, 10:38:26.419, 1583739506419
99, -26235.16, -31865.81, -20544.20, -16333.51, -19831.79, -21165.63, -23828.10, -22678.62, 0.000, 0.000, 0.000, 10:38:26.423, 1583739506423
100, -26533.02, -31939.32, -20582.89, -16340.73, -20032.39, -21162.16, -24011.00, -22781.54, 0.000, 0.000, 0.000, 10:38:26.423, 1583739506423
101, -27220.71, -32003.72, -20759.07, -16550.51, -20916.20, -21324.44, -24361.97, -23175.32, 0.000, 0.000, 0.000, 10:38:26.423, 1583739506423
102, -27482.92, -32019.41, -20845.17, -16631.40, -21288.29, -21366.34, -24456.21, -23356.57, 0.000, -0.018, 0.974, 10:38:26.423, 1583739506423
103, -26895.61, -31959.22, -20716.06, -16496.03, -20612.49, -21271.19, -24129.54, -23050.66, 0.000, 0.000, 0.000, 10:38:26.423, 1583739506423
104, -26273.78, -31907.92, -20553.28, -16345.85, -19838.40, -21174.90, -23836.82, -22688.47, 0.000, 0.000, 0.000, 10:38:26.423, 1583739506423
105, -26562.05, -31966.03, -20579.29, -16341.07, -20028.30, -21163.97, -24012.99, -22784.74, 0.000, 0.000, 0.000, 10:38:26.424, 1583739506424
106, -27241.68, -32022.38, -20762.02, -16561.03, -20917.23, -21331.59, -24365.03, -23182.13, 0.000, 0.000, 0.000, 10:38:26.424, 1583739506424
107, -27506.73, -32038.07, -20857.02, -16651.29, -21297.23, -21380.27, -24462.40, -23367.54, 0.000, 0.000, 0.000, 10:38:26.424, 1583739506424
108, -26907.50, -31964.76, -20710.50, -16496.01, -20608.51, -21270.43, -24123.59, -23049.65, 0.000, 0.000, 0.000, 10:38:26.424, 1583739506424
109, -26280.67, -31913.19, -20543.67, -16342.83, -19832.97, -21171.71, -23827.83, -22686.80, 0.000, 0.000, 0.000, 10:38:26.424, 1583739506424
110, -26571.08, -31969.59, -20582.22, -16344.06, -20027.43, -21168.33, -24008.75, -22788.16, 0.000, 0.000, 0.000, 10:38:26.424, 1583739506424
111, -27259.14, -32028.71, -20761.78, -16555.02, -20912.85, -21332.53, -24362.75, -23183.54, 0.000, 0.000, 0.000, 10:38:26.424, 1583739506424
112, -27515.80, -32053.45, -20853.24, -16643.98, -21296.29, -21379.46, -24461.39, -23367.45, 0.000, 0.000, 0.000, 10:38:26.425, 1583739506425
113, -26921.92, -31984.25, -20719.55, -16509.47, -20619.86, -21283.29, -24133.11, -23062.24, 0.002, -0.018, 0.972, 10:38:26.425, 1583739506425
114, -26291.10, -31926.96, -20552.67, -16353.94, -19839.12, -21182.10, -23837.80, -22696.63, 0.000, 0.000, 0.000, 10:38:26.425, 1583739506425
115, -26567.10, -31977.50, -20579.63, -16341.27, -20020.79, -21166.70, -24007.00, -22785.23, 0.000, 0.000, 0.000, 10:38:26.425, 1583739506425
116, -27254.06, -32029.82, -20766.13, -16561.93, -20910.66, -21337.49, -24365.26, -23184.75, 0.000, 0.000, 0.000, 10:38:26.425, 1583739506425
117, -27517.39, -32043.06, -20871.12, -16668.61, -21308.88, -21398.02, -24475.14, -23382.05, 0.000, 0.000, 0.000, 10:38:26.425, 1583739506425
118, -26919.41, -31967.98, -20734.13, -16531.73, -20635.44, -21298.89, -24144.62, -23076.14, 0.000, 0.000, 0.000, 10:38:26.425, 1583739506425
119, -26292.20, -31918.31, -20564.12, -16362.97, -19853.06, -21191.84, -23846.94, -22705.06, 0.000, 0.000, 0.000, 10:38:26.425, 1583739506425
120, -26570.93, -31977.63, -20595.70, -16352.92, -20033.82, -21179.28, -24018.83, -22794.17, 0.000, 0.000, 0.000, 10:38:26.426, 1583739506426
121, -27246.06, -32024.91, -20776.88, -16570.71, -20919.64, -21345.15, -24371.40, -23188.55, 0.000, 0.000, 0.000, 10:38:26.426, 1583739506426
122, -27511.22, -32029.20, -20874.54, -16667.49, -21314.11, -21397.12, -24475.65, -23379.57, 0.000, 0.000, 0.000, 10:38:26.426, 1583739506426
123, -26917.67, -31969.65, -20738.33, -16532.11, -20641.57, -21299.29, -24147.17, -23074.06, 0.000, -0.018, 0.968, 10:38:26.426, 1583739506426
124, -26279.39, -31912.08, -20565.10, -16366.71, -19853.67, -21189.61, -23842.45, -22698.67, 0.000, 0.000, 0.000, 10:38:26.426, 1583739506426
125, -26547.70, -31953.81, -20590.38, -16345.09, -20024.28, -21167.44, -24010.20, -22780.25, 0.000, 0.000, 0.000, 10:38:26.426, 1583739506426
126, -27230.21, -32006.80, -20770.89, -16557.30, -20908.87, -21333.31, -24365.75, -23174.89, 0.000, 0.000, 0.000, 10:38:26.426, 1583739506426
127, -27494.70, -32014.94, -20858.80, -16645.03, -21297.35, -21378.46, -24466.29, -23361.62, 0.000, 0.000, 0.000, 10:38:26.426, 1583739506426
128, -26898.36, -31935.10, -20722.62, -16505.09, -20627.96, -21276.18, -24136.69, -23053.34, 0.000, 0.000, 0.000, 10:38:26.427, 1583739506427
129, -26249.82, -31861.29, -20546.59, -16347.26, -19837.20, -21169.36, -23827.99, -22677.01, 0.000, 0.000, 0.000, 10:38:26.427, 1583739506427
130, -26514.06, -31905.35, -20572.99, -16335.68, -20007.56, -21153.89, -23991.89, -22760.18, 0.000, 0.000, 0.000, 10:38:26.427, 1583739506427
131, -27192.28, -31955.73, -20745.79, -16533.07, -20884.29, -21308.48, -24338.70, -23146.33, 0.000, 0.000, 0.000, 10:38:26.427, 1583739506427
132, -27456.57, -31961.79, -20834.46, -16618.92, -21276.31, -21354.34, -24440.38, -23334.26, 0.000, 0.000, 0.000, 10:38:26.427, 1583739506427
133, -26861.34, -31885.41, -20699.26, -16482.15, -20609.02, -21254.34, -24111.65, -23028.46, 0.000, -0.018, 0.974, 10:38:26.427, 1583739506427
134, -26223.45, -31827.61, -20531.22, -16330.09, -19822.02, -21157.87, -23809.86, -22660.29, 0.000, 0.000, 0.000, 10:38:26.427, 1583739506427
135, -26486.66, -31877.19, -20557.53, -16315.79, -19988.63, -21140.82, -23976.80, -22742.88, 0.000, 0.000, 0.000, 10:38:26.427, 1583739506427
136, -27170.22, -31930.43, -20741.30, -16526.05, -20875.66, -21305.57, -24336.11, -23138.12, 0.000, 0.000, 0.000, 10:38:26.428, 1583739506428
137, -27438.93, -31929.18, -20838.64, -16624.40, -21280.18, -21361.05, -24443.91, -23334.30, 0.000, 0.000, 0.000, 10:38:26.428, 1583739506428
138, -26843.17, -31864.89, -20704.29, -16486.58, -20616.85, -21259.57, -24111.27, -23030.14, 0.000, 0.000, 0.000, 10:38:26.428, 1583739506428
139, -26199.66, -31801.08, -20529.27, -16328.75, -19823.90, -21157.09, -23805.81, -22658.34, 0.000, 0.000, 0.000, 10:38:26.428, 1583739506428
140, -26457.96, -31843.54, -20557.75, -16316.93, -19988.63, -21142.83, -23972.76, -22741.29, 0.000, 0.000, 0.000, 10:38:26.428, 1583739506428
141, -27130.21, -31892.52, -20737.99, -16526.70, -20871.72, -21305.71, -24326.97, -23134.23, 0.000, 0.000, 0.000, 10:38:26.429, 1583739506429
142, -27397.85, -31898.49, -20838.84, -16628.49, -21281.07, -21362.68, -24440.18, -23333.97, 0.000, 0.000, 0.000, 10:38:26.429, 1583739506429
143, -26807.29, -31826.16, -20704.69, -16493.73, -20622.97, -21264.80, -24117.29, -23034.70, 0.002, -0.018, 0.972, 10:38:26.429, 1583739506429
144, -26157.78, -31759.32, -20532.98, -16328.31, -19828.03, -21157.98, -23813.23, -22659.13, 0.000, 0.000, 0.000, 10:38:26.429, 1583739506429
145, -26416.56, -31802.42, -20559.07, -16312.79, -19985.74, -21140.41, -23977.27, -22738.45, 0.000, 0.000, 0.000, 10:38:26.429, 1583739506429
146, -27092.04, -31850.50, -20735.22, -16521.63, -20864.48, -21300.90, -24328.64, -23130.46, 0.000, 0.000, 0.000, 10:38:26.430, 1583739506430
147, -27363.54, -31854.95, -20835.89, -16622.43, -21277.21, -21357.14, -24440.27, -23330.79, 0.000, 0.000, 0.000, 10:38:26.430, 1583739506430
148, -26777.12, -31780.56, -20708.44, -16493.35, -20624.13, -21264.24, -24119.05, -23035.60, 0.000, 0.000, 0.000, 10:38:26.430, 1583739506430
149, -26133.21, -31726.38, -20547.00, -16347.64, -19835.45, -21171.88, -23819.13, -22671.35, 0.000, 0.000, 0.000, 10:38:26.430, 1583739506430
150, -26383.64, -31764.71, -20567.36, -16327.32, -19987.31, -21150.29, -23978.26, -22746.77, 0.000, 0.000, 0.000, 10:38:26.430, 1583739506430
151, -27058.06, -31823.90, -20740.65, -16528.42, -20866.74, -21305.39, -24329.34, -23135.15, 0.000, 0.000, 0.000, 10:38:26.430, 1583739506430
152, -27331.06, -31830.83, -20834.44, -16624.13, -21275.08, -21356.69, -24436.07, -23331.42, 0.000, 0.000, 0.000, 10:38:26.431, 1583739506431
153, -26746.52, -31754.79, -20701.71, -16489.15, -20618.16, -21259.84, -24113.46, -23034.30, 0.000, -0.018, 0.972, 10:38:26.431, 1583739506431
154, -26094.79, -31687.31, -20536.11, -16334.25, -19827.94, -21161.07, -23809.03, -22663.71, 0.000, 0.000, 0.000, 10:38:26.431, 1583739506431
155, -26345.24, -31730.71, -20561.86, -16320.26, -19981.81, -21146.18, -23970.55, -22741.80, 0.000, 0.000, 0.000, 10:38:26.431, 1583739506431
156, -27017.42, -31780.07, -20740.43, -16532.96, -20865.04, -21311.31, -24326.99, -23135.17, 0.000, 0.000, 0.000, 10:38:26.431, 1583739506431
157, -27290.67, -31782.32, -20839.60, -16629.90, -21282.35, -21363.35, -24436.65, -23334.59, 0.000, 0.000, 0.000, 10:38:26.431, 1583739506431
158, -26713.33, -31711.09, -20710.32, -16494.71, -20631.38, -21266.97, -24116.44, -23040.54, 0.000, 0.000, 0.000, 10:38:26.432, 1583739506432
159, -26055.85, -31643.23, -20532.96, -16332.44, -19829.84, -21162.36, -23804.61, -22659.95, 0.000, 0.000, 0.000, 10:38:26.432, 1583739506432
160, -26296.09, -31685.70, -20551.45, -16317.20, -19975.17, -21141.42, -23959.95, -22731.81, 0.000, 0.000, 0.000, 10:38:26.432, 1583739506432
161, -26975.65, -31739.61, -20731.55, -16533.00, -20855.94, -21306.33, -24313.69, -23126.77, 0.000, 0.000, 0.000, 10:38:26.432, 1583739506432
162, -27259.54, -31742.72, -20826.19, -16620.71, -21268.49, -21353.89, -24422.95, -23321.61, 0.000, 0.000, 0.000, 10:38:26.432, 1583739506432
163, -26687.33, -31672.15, -20695.41, -16481.59, -20620.31, -21255.28, -24101.57, -23025.92, 0.002, -0.016, 0.966, 10:38:26.432, 1583739506432
164, -26035.74, -31606.24, -20524.13, -16325.07, -19820.32, -21155.39, -23792.20, -22650.68, 0.000, 0.000, 0.000, 10:38:26.432, 1583739506432
165, -26276.69, -31649.67, -20546.33, -16307.70, -19963.37, -21136.28, -23949.54, -22723.14, 0.000, 0.000, 0.000, 10:38:26.432, 1583739506432
166, -26954.10, -31716.25, -20726.30, -16516.73, -20846.87, -21297.86, -24307.21, -23115.21, 0.000, 0.000, 0.000, 10:38:26.433, 1583739506433
167, -27242.73, -31728.59, -20832.52, -16630.14, -21275.22, -21361.47, -24428.98, -23324.87, 0.000, 0.000, 0.000, 10:38:26.433, 1583739506433
168, -26669.27, -31652.51, -20698.05, -16501.31, -20626.10, -21266.12, -24106.11, -23032.78, 0.000, 0.000, 0.000, 10:38:26.433, 1583739506433
169, -26013.16, -31585.72, -20523.01, -16325.40, -19821.32, -21154.49, -23792.31, -22649.83, 0.000, 0.000, 0.000, 10:38:26.433, 1583739506433
170, -26258.45, -31639.94, -20547.33, -16297.51, -19962.14, -21130.87, -23951.37, -22720.79, 0.000, 0.000, 0.000, 10:38:26.433, 1583739506433
171, -26940.27, -31696.58, -20721.38, -16505.47, -20840.61, -21291.53, -24304.82, -23111.50, 0.000, 0.000, 0.000, 10:38:26.433, 1583739506433
172, -27232.22, -31714.17, -20824.38, -16601.89, -21267.86, -21346.16, -24422.72, -23315.55, 0.000, 0.000, 0.000, 10:38:26.433, 1583739506433
173, -26667.06, -31645.60, -20700.13, -16474.06, -20628.83, -21254.65, -24109.46, -23028.13, 0.002, -0.020, 0.968, 10:38:26.434, 1583739506434
174, -26008.58, -31582.52, -20523.17, -16317.26, -19824.70, -21154.38, -23796.38, -22650.83, 0.000, 0.000, 0.000, 10:38:26.434, 1583739506434
175, -26247.29, -31633.73, -20539.33, -16299.38, -19960.69, -21136.23, -23950.05, -22722.27, 0.000, 0.000, 0.000, 10:38:26.434, 1583739506434
176, -26934.21, -31693.99, -20723.51, -16514.90, -20845.79, -21303.47, -24309.38, -23117.98, 0.000, 0.000, 0.000, 10:38:26.434, 1583739506434
177, -27229.61, -31700.29, -20832.54, -16628.74, -21280.47, -21368.18, -24429.49, -23328.80, 0.000, 0.000, 0.000, 10:38:26.434, 1583739506434
178, -26666.44, -31645.46, -20710.97, -16500.33, -20640.85, -21273.94, -24115.25, -23041.05, 0.000, 0.000, 0.000, 10:38:26.434, 1583739506434
179, -26009.79, -31586.57, -20536.94, -16331.77, -19834.02, -21165.20, -23800.83, -22657.85, 0.000, 0.000, 0.000, 10:38:26.435, 1583739506435
180, -26246.96, -31633.91, -20548.83, -16304.79, -19961.61, -21139.45, -23948.69, -22722.13, 0.000, 0.000, 0.000, 10:38:26.435, 1583739506435
181, -26931.15, -31689.63, -20728.65, -16513.07, -20838.89, -21300.50, -24303.97, -23112.55, 0.000, 0.000, 0.000, 10:38:26.435, 1583739506435
182, -27231.20, -31706.42, -20836.85, -16617.90, -21275.04, -21359.01, -24425.61, -23320.47, 0.000, 0.000, 0.000, 10:38:26.435, 1583739506435
183, -26664.24, -31634.74, -20706.12, -16482.00, -20634.39, -21258.45, -24107.00, -23027.82, 0.002, -0.020, 0.974, 10:38:26.435, 1583739506435
184, -26004.85, -31574.05, -20536.87, -16331.01, -19832.03, -21161.47, -23799.38, -22651.95, 0.000, 0.000, 0.000, 10:38:26.435, 1583739506435
185, -26242.78, -31623.11, -20559.31, -16316.19, -19964.53, -21144.32, -23954.65, -22721.29, 0.000, 0.000, 0.000, 10:38:26.435, 1583739506435
186, -26923.95, -31678.28, -20728.94, -16515.12, -20838.44, -21298.80, -24304.95, -23107.72, 0.000, 0.000, 0.000, 10:38:26.435, 1583739506435
187, -27226.59, -31696.02, -20831.27, -16619.08, -21278.46, -21358.28, -24425.70, -23318.03, 0.000, 0.000, 0.000, 10:38:26.435, 1583739506435
188, -26667.33, -31630.80, -20704.22, -16484.48, -20640.54, -21259.84, -24108.68, -23030.19, 0.000, 0.000, 0.000, 10:38:26.436, 1583739506436
189, -26006.52, -31570.03, -20528.04, -16323.55, -19828.86, -21156.24, -23790.71, -22648.66, 0.000, 0.000, 0.000, 10:38:26.436, 1583739506436
190, -26238.44, -31620.27, -20545.37, -16303.90, -19952.80, -21134.54, -23940.48, -22714.18, 0.000, 0.000, 0.000, 10:38:26.436, 1583739506436
191, -26922.38, -31679.44, -20727.49, -16518.30, -20832.74, -21298.66, -24301.46, -23108.66, 0.000, 0.000, 0.000, 10:38:26.436, 1583739506436
192, -27227.08, -31698.97, -20836.81, -16624.87, -21276.40, -21361.29, -24426.88, -23321.72, 0.000, 0.000, 0.000, 10:38:26.436, 1583739506436
193, -26668.92, -31632.39, -20705.47, -16489.48, -20642.15, -21263.08, -24112.23, -23033.23, 0.006, -0.016, 0.966, 10:38:26.437, 1583739506437
194, -26008.64, -31571.57, -20535.20, -16335.37, -19833.98, -21165.29, -23801.57, -22656.55, 0.000, 0.000, 0.000, 10:38:26.437, 1583739506437
195, -26236.19, -31622.87, -20553.57, -16313.69, -19957.18, -21143.21, -23951.05, -22719.92, 0.000, 0.000, 0.000, 10:38:26.437, 1583739506437
196, -26922.79, -31690.41, -20735.91, -16526.86, -20837.35, -21307.85, -24309.62, -23114.23, 0.000, 0.000, 0.000, 10:38:26.437, 1583739506437
197, -27224.76, -31699.40, -20838.55, -16631.42, -21278.90, -21366.84, -24430.46, -23325.72, 0.000, 0.000, 0.000, 10:38:26.437, 1583739506437
198, -26668.02, -31628.25, -20713.05, -16494.07, -20649.79, -21267.75, -24118.07, -23038.61, 0.000, 0.000, 0.000, 10:38:26.437, 1583739506437
199, -26009.72, -31576.22, -20541.16, -16339.26, -19842.69, -21170.39, -23803.73, -22659.39, 0.000, 0.000, 0.000, 10:38:26.438, 1583739506438
200, -26237.37, -31629.82, -20563.92, -16323.25, -19965.52, -21151.84, -23953.25, -22724.44, 0.000, 0.000, 0.000, 10:38:26.438, 1583739506438
201, -26919.75, -31692.92, -20744.68, -16533.29, -20844.79, -21315.49, -24311.68, -23116.89, 0.000, 0.000, 0.000, 10:38:26.438, 1583739506438
202, -27227.42, -31704.88, -20849.10, -16639.98, -21289.90, -21375.42, -24437.45, -23331.29, 0.000, 0.000, 0.000, 10:38:26.438, 1583739506438
203, -26682.37, -31642.22, -20726.19, -16513.07, -20664.77, -21282.01, -24130.99, -23053.34, 0.000, 0.000, 0.000, 10:38:26.438, 1583739506438
204, -26016.24, -31571.57, -20545.88, -16350.99, -19848.04, -21177.49, -23809.57, -22667.64, 0.008, -0.020, 0.972, 10:38:26.438, 1583739506438
205, -26241.55, -31631.12, -20559.42, -16326.76, -19960.69, -21151.28, -23952.17, -22726.38, 0.000, 0.000, 0.000, 10:38:26.439, 1583739506439
206, -26923.37, -31695.53, -20731.85, -16525.18, -20829.34, -21305.10, -24304.32, -23111.86, 0.000, 0.000, 0.000, 10:38:26.439, 1583739506439
207, -27233.52, -31705.28, -20838.13, -16627.37, -21276.87, -21363.84, -24431.84, -23323.57, 0.000, 0.000, 0.000, 10:38:26.439, 1583739506439
208, -26689.79, -31642.07, -20719.20, -16498.27, -20657.19, -21269.99, -24125.82, -23044.27, 0.000, 0.000, 0.000, 10:38:26.439, 1583739506439
209, -26018.84, -31577.81, -20544.67, -16343.15, -19843.90, -21171.15, -23804.18, -22661.92, 0.000, 0.000, 0.000, 10:38:26.439, 1583739506439
210, -26233.91, -31624.37, -20550.82, -16308.26, -19947.79, -21139.63, -23941.56, -22713.30, 0.000, 0.000, 0.000, 10:38:26.897, 1583739506897
211, -26915.32, -31686.50, -20723.75, -16506.92, -20816.47, -21294.82, -24294.65, -23100.01, 0.000, 0.000, 0.000, 10:38:26.898, 1583739506898
212, -27225.81, -31705.30, -20835.36, -16629.12, -21273.85, -21367.26, -24429.88, -23324.89, 0.000, 0.000, 0.000, 10:38:26.898, 1583739506898
213, -26677.54, -31635.63, -20708.82, -16486.78, -20650.93, -21264.64, -24121.85, -23041.14, 0.000, 0.000, 0.000, 10:38:26.898, 1583739506898
214, -26010.10, -31572.75, -20528.94, -16315.90, -19832.28, -21155.61, -23796.09, -22650.92, 0.002, -0.016, 0.974, 10:38:26.899, 1583739506899
215, -26228.50, -31616.79, -20546.68, -16297.64, -19940.50, -21134.38, -23938.38, -22709.04, 0.000, 0.000, 0.000, 10:38:26.899, 1583739506899
216, -26912.17, -31674.01, -20727.35, -16510.85, -20815.96, -21299.69, -24296.55, -23102.72, 0.000, 0.000, 0.000, 10:38:26.899, 1583739506899
217, -27227.46, -31702.17, -20833.90, -16624.29, -21272.82, -21365.00, -24425.07, -23322.97, 0.000, 0.000, 0.000, 10:38:26.899, 1583739506899
218, -26679.58, -31631.61, -20710.14, -16489.57, -20655.02, -21265.20, -24115.27, -23040.27, 0.000, 0.000, 0.000, 10:38:26.899, 1583739506899
219, -26007.01, -31562.72, -20534.08, -16327.12, -19838.56, -21162.01, -23794.04, -22653.07, 0.000, 0.000, 0.000, 10:38:26.902, 1583739506902
220, -26222.22, -31609.63, -20549.57, -16306.80, -19943.01, -21138.69, -23936.77, -22709.97, 0.000, 0.000, 0.000, 10:38:26.903, 1583739506903
221, -26910.72, -31674.30, -20727.49, -16512.53, -20814.08, -21300.52, -24294.51, -23101.69, 0.000, 0.000, 0.000, 10:38:26.903, 1583739506903
222, -27229.10, -31692.36, -20837.28, -16626.10, -21275.11, -21368.31, -24426.25, -23323.06, 0.000, 0.000, 0.000, 10:38:26.903, 1583739506903
223, -26681.46, -31626.35, -20714.43, -16498.16, -20659.98, -21272.87, -24117.60, -23045.63, 0.000, 0.000, 0.000, 10:38:26.903, 1583739506903
224, -26009.92, -31570.70, -20536.20, -16334.18, -19839.12, -21169.85, -23793.81, -22660.00, 0.004, -0.020, 0.970, 10:38:26.903, 1583739506903
225, -26228.23, -31629.44, -20543.20, -16303.63, -19935.95, -21140.93, -23930.92, -22710.00, 0.000, 0.000, 0.000, 10:38:26.904, 1583739506904
226, -26913.82, -31690.39, -20717.85, -16508.55, -20807.24, -21299.11, -24285.66, -23097.20, 0.000, 0.000, 0.000, 10:38:26.904, 1583739506904
227, -27234.95, -31706.53, -20835.00, -16628.47, -21276.76, -21370.90, -24425.20, -23323.51, 0.000, 0.000, 0.000, 10:38:26.904, 1583739506904
228, -26698.08, -31651.19, -20712.38, -16499.92, -20666.11, -21274.48, -24120.79, -23047.75, 0.000, 0.000, 0.000, 10:38:26.904, 1583739506904
229, -26025.54, -31585.03, -20533.23, -16338.61, -19842.96, -21171.13, -23797.16, -22661.74, 0.000, 0.000, 0.000, 10:38:26.904, 1583739506904
230, -26233.04, -31630.31, -20543.96, -16309.40, -19936.82, -21143.54, -23935.01, -22711.92, 0.000, 0.000, 0.000, 10:38:26.905, 1583739506905
231, -26914.54, -31693.54, -20722.57, -16517.40, -20808.15, -21304.95, -24294.22, -23104.17, 0.000, 0.000, 0.000, 10:38:26.905, 1583739506905
232, -27236.43, -31709.95, -20836.47, -16633.63, -21278.84, -21373.94, -24431.91, -23329.72, 0.000, 0.000, 0.000, 10:38:26.905, 1583739506905
233, -26706.65, -31646.09, -20721.50, -16512.75, -20678.11, -21284.25, -24133.11, -23060.29, 0.000, 0.000, 0.000, 10:38:26.905, 1583739506905
234, -26027.26, -31578.97, -20542.91, -16353.25, -19851.81, -21181.16, -23806.33, -22671.22, 0.004, -0.024, 0.970, 10:38:26.905, 1583739506905
235, -26225.23, -31624.95, -20553.93, -16325.58, -19940.48, -21152.95, -23941.33, -22717.87, 0.000, 0.000, 0.000, 10:38:26.905, 1583739506905
236, -26908.19, -31687.75, -20731.18, -16524.00, -20810.95, -21309.75, -24298.00, -23104.19, 0.000, 0.000, 0.000, 10:38:26.906, 1583739506906
237, -27235.91, -31709.57, -20841.55, -16637.56, -21282.57, -21377.48, -24434.68, -23330.68, 0.000, 0.000, 0.000, 10:38:26.906, 1583739506906
238, -26698.31, -31637.71, -20712.38, -16506.36, -20670.40, -21279.31, -24124.55, -23054.91, 0.000, 0.000, 0.000, 10:38:26.906, 1583739506906
239, -26018.70, -31580.13, -20534.01, -16343.04, -19844.37, -21175.17, -23796.70, -22664.47, 0.000, 0.000, 0.000, 10:38:26.906, 1583739506906
240, -26215.89, -31634.45, -20543.67, -16310.00, -19929.06, -21144.01, -23930.60, -22708.81, 0.000, 0.000, 0.000, 10:38:26.906, 1583739506906
241, -26891.88, -31681.94, -20717.90, -16513.74, -20796.11, -21301.37, -24284.34, -23095.03, 0.000, 0.000, 0.000, 10:38:26.907, 1583739506907
242, -27219.04, -31694.41, -20828.96, -16628.45, -21271.01, -21369.96, -24420.53, -23321.72, 0.000, 0.000, 0.000, 10:38:26.907, 1583739506907
243, -26689.10, -31626.96, -20705.96, -16491.18, -20666.94, -21270.12, -24117.33, -23047.53, 0.000, 0.000, 0.000, 10:38:26.907, 1583739506907
244, -26007.64, -31564.75, -20529.58, -16327.19, -19840.66, -21164.17, -23788.78, -22656.15, 0.004, -0.024, 0.968, 10:38:26.907, 1583739506907
245, -26201.76, -31608.63, -20541.79, -16305.08, -19923.49, -21139.27, -23920.99, -22702.51, 0.000, 0.000, 0.000, 10:38:26.907, 1583739506907
246, -26883.47, -31665.54, -20715.95, -16509.67, -20792.51, -21298.13, -24277.62, -23091.29, 0.000, 0.000, 0.000, 10:38:26.907, 1583739506907
247, -27216.64, -31685.52, -20829.97, -16623.80, -21271.91, -21367.17, -24419.57, -23320.16, 0.000, 0.000, 0.000, 10:38:26.908, 1583739506908
248, -26690.71, -31629.88, -20715.17, -16497.98, -20674.78, -21272.98, -24122.47, -23051.71, 0.000, 0.000, 0.000, 10:38:26.908, 1583739506908
249, -26008.40, -31570.38, -20540.34, -16339.28, -19851.25, -21172.06, -23795.71, -22664.02, 0.000, 0.000, 0.000, 10:38:26.908, 1583739506908
250, -26200.36, -31613.43, -20548.14, -16305.89, -19925.82, -21140.44, -23925.66, -22705.10, 0.000, 0.000, 0.000, 10:38:26.908, 1583739506908
251, -26880.59, -31670.83, -20716.47, -16506.72, -20790.79, -21297.37, -24281.41, -23091.74, 0.000, 0.000, 0.000, 10:38:26.908, 1583739506908
252, -27215.73, -31690.84, -20827.89, -16627.17, -21272.29, -21370.70, -24424.00, -23325.50, 0.000, 0.000, 0.000, 10:38:26.909, 1583739506909
253, -26693.88, -31622.93, -20715.89, -16508.86, -20681.53, -21281.41, -24127.25, -23061.46, 0.000, 0.000, 0.000, 10:38:26.909, 1583739506909
254, -26011.64, -31569.36, -20542.46, -16351.98, -19857.47, -21183.62, -23800.96, -22673.59, 0.004, -0.022, 0.968, 10:38:26.909, 1583739506909
255, -26199.39, -31620.77, -20550.24, -16317.60, -19932.12, -21153.38, -23930.00, -22713.28, 0.000, 0.000, 0.000, 10:38:26.909, 1583739506909
0, -26885.21, -31678.19, -20730.97, -16530.52, -20802.41, -21317.62, -24290.27, -23106.23, 0.000, 0.000, 0.000, 10:38:26.909, 1583739506909
1, -27219.42, -31693.48, -20844.88, -16650.62, -21287.22, -21389.84, -24431.93, -23338.17, 0.000, 0.000, 0.000, 10:38:26.910, 1583739506910
2, -26698.20, -31632.23, -20724.54, -16518.18, -20692.53, -21292.32, -24132.11, -23069.66, 0.000, 0.000, 0.000, 10:38:26.910, 1583739506910
3, -26014.10, -31566.52, -20544.52, -16350.12, -19861.40, -21184.16, -23800.72, -22675.11, 0.000, 0.000, 0.000, 10:38:26.910, 1583739506910
4, -26207.11, -31621.46, -20552.74, -16315.14, -19929.91, -21151.95, -23931.36, -22713.75, 0.000, 0.000, 0.000, 10:38:26.910, 1583739506910
5, -26894.60, -31690.19, -20727.73, -16518.01, -20792.42, -21307.69, -24287.99, -23099.99, 0.000, 0.000, 0.000, 10:38:26.910, 1583739506910
6, -27232.40, -31708.94, -20841.12, -16635.89, -21280.42, -21378.71, -24430.59, -23331.71, 0.000, 0.000, 0.000, 10:38:26.910, 1583739506910
7, -26712.41, -31642.89, -20722.39, -16510.12, -20690.61, -21285.25, -24131.84, -23066.40, 0.000, 0.000, 0.000, 10:38:26.911, 1583739506911
8, -26021.50, -31570.43, -20535.46, -16335.26, -19852.13, -21174.01, -23793.90, -22666.37, 0.006, -0.018, 0.970, 10:38:26.911, 1583739506911
9, -26211.00, -31621.73, -20548.34, -16308.55, -19924.72, -21149.87, -23927.18, -22710.58, 0.000, 0.000, 0.000, 10:38:26.911, 1583739506911
10, -26891.38, -31681.94, -20719.73, -16511.32, -20787.32, -21304.59, -24283.27, -23096.21, 0.000, 0.000, 0.000, 10:38:26.911, 1583739506911
11, -27228.49, -31695.38, -20834.40, -16627.95, -21277.54, -21372.65, -24425.56, -23326.59, 0.000, 0.000, 0.000, 10:38:26.911, 1583739506911
12, -26709.64, -31636.70, -20721.16, -16506.63, -20693.11, -21281.30, -24132.66, -23063.02, 0.000, 0.000, 0.000, 10:38:26.911, 1583739506911
13, -26023.62, -31571.75, -20543.94, -16347.22, -19862.97, -21180.96, -23804.88, -22672.42, 0.000, 0.000, 0.000, 10:38:26.912, 1583739506912
14, -26204.20, -31618.35, -20549.16, -16315.81, -19926.51, -21152.10, -23930.71, -22710.53, 0.000, 0.000, 0.000, 10:38:26.912, 1583739506912
15, -26878.91, -31677.09, -20720.16, -16511.70, -20786.74, -21304.68, -24282.87, -23092.53, 0.000, 0.000, 0.000, 10:38:26.912, 1583739506912
16, -27224.67, -31696.22, -20830.19, -16622.08, -21278.10, -21371.80, -24426.57, -23323.49, 0.000, 0.000, 0.000, 10:38:26.912, 1583739506912
17, -26711.45, -31635.92, -20710.01, -16492.10, -20690.32, -21274.39, -24130.92, -23059.15, 0.000, 0.000, 0.000, 10:38:26.913, 1583739506913
18, -26020.34, -31567.52, -20534.19, -16331.84, -19855.79, -21173.31, -23798.66, -22665.21, 0.002, -0.014, 0.970, 10:38:26.915, 1583739506915
19, -26200.92, -31616.94, -20542.57, -16301.89, -19916.66, -21145.60, -23924.52, -22701.68, 0.000, 0.000, 0.000, 10:38:26.916, 1583739506916
20, -26882.53, -31679.24, -20715.84, -16500.19, -20779.37, -21300.32, -24279.89, -23086.20, 0.000, 0.000, 0.000, 10:38:26.916, 1583739506916
21, -27231.15, -31692.65, -20834.44, -16624.36, -21281.34, -21373.68, -24428.76, -23324.69, 0.000, 0.000, 0.000, 10:38:26.916, 1583739506916
22, -26722.83, -31635.94, -20721.59, -16502.22, -20703.04, -21281.32, -24136.64, -23066.57, 0.000, 0.000, 0.000, 10:38:26.917, 1583739506917
23, -26030.42, -31575.86, -20543.06, -16339.77, -19867.73, -21179.30, -23804.29, -22673.47, 0.000, 0.000, 0.000, 10:38:26.917, 1583739506917
24, -26211.13, -31625.64, -20552.47, -16313.42, -19926.42, -21154.61, -23931.63, -22712.41, 0.000, 0.000, 0.000, 10:38:26.917, 1583739506917
25, -26900.23, -31684.96, -20734.39, -16532.71, -20797.94, -21323.79, -24295.14, -23108.91, 0.000, 0.000, 0.000, 10:38:26.917, 1583739506917
26, -27248.92, -31719.74, -20852.14, -16660.68, -21303.22, -21403.58, -24444.58, -23352.34, 0.000, 0.000, 0.000, 10:38:26.917, 1583739506917
27, -26736.13, -31659.14, -20729.72, -16518.45, -20719.98, -21301.41, -24148.78, -23088.64, 0.000, 0.000, 0.000, 10:38:26.917, 1583739506917
28, -26040.63, -31594.77, -20550.91, -16355.60, -19881.14, -21198.08, -23816.88, -22693.81, 0.004, -0.016, 0.970, 10:38:26.918, 1583739506918
29, -26213.68, -31635.18, -20547.62, -16307.56, -19925.06, -21155.23, -23934.29, -22716.57, 0.000, 0.000, 0.000, 10:38:26.918, 1583739506918
30, -26898.27, -31699.40, -20716.71, -16502.47, -20780.77, -21305.17, -24286.60, -23097.24, 0.000, 0.000, 0.000, 10:38:26.918, 1583739506918
31, -27247.36, -31720.07, -20835.40, -16629.99, -21286.04, -21381.01, -24434.05, -23336.52, 0.000, 0.000, 0.000, 10:38:26.918, 1583739506918
32, -26741.71, -31658.61, -20724.00, -16512.62, -20712.62, -21290.97, -24143.75, -23080.21, 0.000, 0.000, 0.000, 10:38:26.918, 1583739506918
33, -26039.16, -31588.98, -20540.34, -16349.50, -19867.64, -21185.92, -23805.86, -22680.45, 0.000, 0.000, 0.000, 10:38:26.918, 1583739506918
34, -26207.91, -31633.57, -20541.39, -16308.26, -19909.84, -21148.33, -23924.12, -22705.59, 0.000, 0.000, 0.000, 10:38:26.918, 1583739506918
35, -26889.08, -31692.67, -20713.41, -16507.08, -20766.45, -21301.12, -24277.73, -23087.63, 0.000, 0.000, 0.000, 10:38:26.918, 1583739506918
36, -27236.85, -31707.67, -20829.08, -16627.28, -21273.32, -21372.00, -24422.12, -23325.23, 0.000, 0.000, 0.000, 10:38:26.918, 1583739506918
37, -26738.09, -31648.50, -20721.90, -16512.11, -20707.42, -21286.28, -24134.63, -23073.82, 0.000, 0.000, 0.000, 10:38:26.919, 1583739506919
38, -26038.22, -31575.44, -20546.04, -16356.60, -19867.44, -21188.20, -23798.33, -22680.40, 0.000, 0.000, 0.000, 10:38:26.919, 1583739506919
39, -26199.84, -31627.79, -20548.99, -16314.76, -19909.68, -21150.14, -23912.16, -22704.16, 0.000, -0.024, 0.966, 10:38:26.919, 1583739506919
40, -26880.10, -31692.89, -20711.77, -16498.25, -20759.65, -21295.31, -24263.02, -23079.45, 0.000, 0.000, 0.000, 10:38:26.919, 1583739506919
41, -27233.59, -31706.04, -20821.86, -16616.15, -21264.35, -21365.12, -24411.48, -23316.45, 0.000, 0.000, 0.000, 10:38:26.919, 1583739506919
42, -26731.26, -31637.04, -20707.64, -16489.53, -20695.57, -21267.06, -24120.19, -23056.18, 0.000, 0.000, 0.000, 10:38:26.919, 1583739506919
43, -26030.13, -31574.95, -20530.17, -16330.32, -19855.48, -21165.38, -23782.39, -22658.34, 0.000, 0.000, 0.000, 10:38:26.919, 1583739506919
44, -26192.27, -31620.16, -20534.23, -16293.24, -19894.73, -21133.22, -23899.67, -22685.95, 0.000, 0.000, 0.000, 10:38:26.919, 1583739506919
45, -26872.67, -31681.50, -20707.26, -16492.61, -20755.18, -21290.01, -24255.93, -23072.01, 0.000, 0.000, 0.000, 10:38:26.920, 1583739506920
46, -27238.15, -31708.50, -20832.32, -16624.87, -21277.21, -21376.09, -24416.13, -23322.30, 0.000, 0.000, 0.000, 10:38:26.920, 1583739506920
47, -26736.69, -31645.31, -20723.55, -16505.85, -20716.58, -21286.01, -24131.59, -23071.22, 0.000, 0.000, 0.000, 10:38:26.920, 1583739506920
48, -26035.74, -31576.46, -20543.71, -16345.32, -19873.76, -21184.56, -23794.24, -22674.93, 0.000, 0.000, 0.000, 10:38:26.920, 1583739506920
49, -26195.26, -31614.04, -20545.41, -16306.36, -19906.93, -21148.75, -23908.19, -22698.93, 0.000, -0.024, 0.972, 10:38:26.920, 1583739506920
50, -26875.69, -31690.35, -20718.55, -16509.58, -20762.20, -21303.60, -24266.44, -23082.98, 0.000, 0.000, 0.000, 10:38:26.920, 1583739506920
51, -27237.54, -31709.75, -20839.11, -16639.62, -21281.97, -21383.11, -24425.43, -23330.01, 0.000, 0.000, 0.000, 10:38:26.920, 1583739506920
52, -26739.10, -31639.74, -20722.84, -16508.57, -20715.75, -21284.58, -24136.62, -23074.55, 0.000, 0.000, 0.000, 10:38:26.920, 1583739506920
53, -26036.74, -31574.61, -20539.55, -16342.32, -19865.83, -21178.79, -23794.30, -22674.70, 0.000, 0.000, 0.000, 10:38:26.921, 1583739506921
54, -26188.46, -31617.03, -20537.25, -16298.91, -19892.58, -21139.59, -23902.46, -22692.18, 0.000, 0.000, 0.000, 10:38:26.921, 1583739506921
55, -26873.99, -31681.90, -20716.54, -16500.75, -20751.25, -21297.57, -24263.18, -23077.82, 0.000, 0.000, 0.000, 10:38:26.921, 1583739506921
56, -27238.19, -31703.91, -20836.99, -16632.16, -21271.84, -21378.64, -24419.21, -23327.11, 0.000, 0.000, 0.000, 10:38:26.921, 1583739506921
57, -26743.35, -31643.52, -20733.68, -16517.36, -20720.65, -21292.54, -24140.22, -23082.13, 0.000, 0.000, 0.000, 10:38:26.921, 1583739506921
58, -26037.77, -31577.02, -20555.54, -16355.58, -19875.84, -21191.40, -23800.74, -22683.06, 0.000, 0.000, 0.000, 10:38:26.921, 1583739506921
59, -26188.29, -31615.47, -20550.82, -16315.68, -19901.99, -21154.27, -23911.43, -22702.06, 0.004, -0.026, 0.972, 10:38:26.921, 1583739506921
60, -26865.07, -31675.28, -20719.53, -16511.35, -20755.58, -21305.95, -24265.14, -23082.22, 0.000, 0.000, 0.000, 10:38:26.921, 1583739506921
61, -27232.07, -31696.67, -20843.67, -16636.56, -21282.35, -21384.29, -24424.67, -23327.89, 0.000, 0.000, 0.000, 10:38:26.922, 1583739506922
62, -26745.83, -31648.55, -20733.30, -16514.74, -20725.50, -21290.24, -24141.43, -23077.48, 0.000, 0.000, 0.000, 10:38:26.922, 1583739506922
63, -26032.92, -31574.12, -20543.17, -16340.96, -19870.23, -21177.00, -23792.54, -22668.74, 0.000, 0.000, 0.000, 10:38:26.922, 1583739506922
64, -26183.86, -31616.03, -20538.97, -16298.49, -19894.66, -21138.67, -23902.64, -22686.04, 0.000, 0.000, 0.000, 10:38:26.922, 1583739506922
65, -26867.38, -31678.03, -20710.01, -16497.17, -20749.73, -21292.63, -24259.42, -23068.23, 0.000, 0.000, 0.000, 10:38:26.922, 1583739506922
66, -27231.89, -31696.49, -20830.19, -16628.13, -21274.79, -21373.14, -24416.62, -23316.91, 0.000, 0.000, 0.000, 10:38:26.922, 1583739506922
67, -26744.38, -31641.89, -20726.71, -16514.96, -20728.25, -21288.09, -24138.41, -23075.34, 0.000, 0.000, 0.000, 10:38:26.922, 1583739506922
68, -26040.94, -31576.73, -20545.41, -16352.51, -19877.85, -21184.80, -23795.85, -22675.73, 0.000, 0.000, 0.000, 10:38:26.922, 1583739506922
69, -26185.00, -31618.93, -20539.33, -16306.76, -19889.61, -21144.84, -23903.00, -22688.96, 0.002, -0.024, 0.972, 10:38:26.922, 1583739506922
70, -26867.00, -31685.88, -20714.39, -16506.12, -20747.56, -21301.26, -24265.86, -23073.57, 0.000, 0.000, 0.000, 10:38:26.923, 1583739506923
71, -27231.00, -31701.48, -20830.33, -16626.48, -21277.21, -21375.62, -24421.09, -23317.67, 0.000, 0.000, 0.000, 10:38:26.923, 1583739506923
72, -26745.02, -31635.85, -20720.33, -16500.13, -20726.93, -21279.35, -24138.23, -23068.25, 0.000, 0.000, 0.000, 10:38:26.923, 1583739506923
73, -26037.35, -31561.96, -20537.83, -16338.79, -19875.91, -21177.65, -23796.61, -22668.18, 0.000, 0.000, 0.000, 10:38:26.923, 1583739506923
74, -26181.47, -31616.23, -20536.98, -16297.39, -19892.87, -21139.97, -23904.38, -22683.91, 0.000, 0.000, 0.000, 10:38:27.381, 1583739507381
75, -26859.67, -31683.17, -20704.46, -16491.03, -20740.25, -21290.35, -24261.05, -23063.04, 0.000, 0.000, 0.000, 10:38:27.381, 1583739507381
76, -27235.98, -31701.01, -20834.22, -16631.57, -21282.30, -21379.93, -24430.03, -23322.48, 0.000, 0.000, 0.000, 10:38:27.382, 1583739507382
77, -26754.68, -31639.61, -20723.66, -16510.70, -20734.19, -21286.04, -24144.82, -23076.48, 0.000, 0.000, 0.000, 10:38:27.382, 1583739507382
