%OpenBCI Raw EEG Data
%Number of channels = 8
%Sample Rate = 250.0 Hz
%First Column = SampleIndex
%Last Column = Timestamp 
%Other Columns = EEG data in microvolts followed by Accel Data (in G) interleaved with Aux Data
0, 0.00, 0.00, 0.00, 0.00, 0.00, 0.00, 0.00, 0.00, 0.000, 0.000, 0.000, 10:41:49.005, 1583739709005
1, -25041.26, -30606.67, -19680.69, -15664.19, -18566.56, -20647.36, -23119.46, -21735.64, 0.006, -0.016, 0.974, 10:41:49.492, 1583739709492
2, -25452.40, -30665.07, -19751.14, -15713.03, -18935.15, -20675.61, -23339.38, -21914.01, 0.000, 0.000, 0.000, 10:41:49.493, 1583739709493
3, -25962.27, -30712.53, -19865.58, -15823.31, -19547.54, -20727.26, -23578.61, -22199.13, 0.000, 0.000, 0.000, 10:41:49.493, 1583739709493
4, -26011.91, -30717.71, -19893.16, -15838.27, -19631.89, -20729.25, -23581.22, -22248.90, 0.000, 0.000, 0.000, 10:41:49.493, 1583739709493
5, -25417.44, -30642.72, -19777.49, -15752.08, -19018.03, -20689.20, -23276.88, -21957.39, 0.000, 0.000, 0.000, 10:41:49.493, 1583739709493
6, -25036.54, -30600.25, -19688.58, -15680.67, -18569.36, -20658.69, -23112.82, -21741.41, 0.000, 0.000, 0.000, 10:41:49.493, 1583739709493
7, -25439.62, -30643.21, -19757.69, -15716.67, -18930.68, -20676.97, -23332.38, -21912.35, 0.000, 0.000, 0.000, 10:41:49.493, 1583739709493
8, -25943.38, -30702.22, -19860.35, -15815.47, -19533.17, -20719.08, -23564.82, -22189.22, 0.002, -0.018, 0.974, 10:41:49.493, 1583739709493
9, -26008.76, -30708.23, -19879.15, -15823.49, -19615.87, -20716.06, -23567.03, -22238.29, 0.000, 0.000, 0.000, 10:41:49.494, 1583739709494
10, -25426.88, -30637.51, -19767.08, -15739.85, -19006.85, -20681.02, -23270.98, -21954.15, 0.000, 0.000, 0.000, 10:41:49.494, 1583739709494
11, -25040.66, -30613.71, -19685.40, -15677.09, -18563.59, -20657.35, -23114.25, -21743.04, 0.000, 0.000, 0.000, 10:41:49.494, 1583739709494
12, -25445.05, -30678.60, -19756.64, -15716.32, -18926.94, -20679.88, -23335.53, -21915.30, 0.000, 0.000, 0.000, 10:41:49.497, 1583739709497
13, -25958.98, -30726.74, -19869.78, -15819.49, -19536.07, -20726.30, -23573.31, -22195.71, 0.000, 0.000, 0.000, 10:41:49.497, 1583739709497
14, -26019.44, -30712.82, -19900.18, -15839.16, -19631.34, -20728.81, -23581.51, -22250.96, 0.000, 0.000, 0.000, 10:41:49.497, 1583739709497
15, -25428.51, -30640.20, -19781.34, -15754.63, -19020.82, -20688.33, -23283.16, -21963.74, 0.000, 0.000, 0.000, 10:41:49.498, 1583739709498
16, -25040.14, -30609.69, -19682.54, -15672.44, -18560.53, -20651.96, -23112.60, -21740.22, 0.000, 0.000, 0.000, 10:41:49.498, 1583739709498
17, -25446.28, -30674.15, -19744.99, -15705.88, -18913.64, -20670.87, -23327.38, -21906.25, 0.000, 0.000, 0.000, 10:41:49.498, 1583739709498
18, -25960.81, -30713.31, -19847.59, -15803.69, -19520.72, -20712.73, -23566.63, -22185.60, 0.002, -0.016, 0.974, 10:41:49.498, 1583739709498
19, -26022.44, -30704.08, -19874.90, -15815.45, -19618.88, -20711.88, -23573.76, -22240.74, 0.000, 0.000, 0.000, 10:41:49.498, 1583739709498
20, -25436.37, -30637.54, -19764.66, -15734.40, -19017.80, -20676.73, -23277.13, -21958.96, 0.000, 0.000, 0.000, 10:41:49.498, 1583739709498
21, -25043.59, -30606.06, -19685.67, -15676.98, -18566.01, -20658.00, -23118.56, -21748.52, 0.000, 0.000, 0.000, 10:41:49.498, 1583739709498
22, -25442.07, -30675.02, -19752.24, -15717.77, -18917.76, -20680.08, -23333.77, -21915.71, 0.000, 0.000, 0.000, 10:41:49.498, 1583739709498
23, -25961.37, -30729.15, -19856.80, -15812.16, -19525.46, -20721.05, -23568.73, -22193.67, 0.000, 0.000, 0.000, 10:41:49.499, 1583739709499
24, -26029.72, -30728.17, -19882.61, -15826.82, -19627.89, -20721.99, -23579.55, -22252.14, 0.000, 0.000, 0.000, 10:41:49.499, 1583739709499
25, -25446.10, -30654.32, -19773.52, -15743.18, -19028.06, -20685.58, -23285.64, -21971.63, 0.000, 0.000, 0.000, 10:41:49.499, 1583739709499
26, -25051.28, -30616.84, -19688.80, -15677.29, -18571.28, -20662.22, -23123.57, -21756.99, 0.000, 0.000, 0.000, 10:41:49.499, 1583739709499
27, -25444.22, -30670.71, -19754.58, -15713.63, -18919.88, -20681.67, -23340.34, -21920.31, 0.000, 0.000, 0.000, 10:41:49.499, 1583739709499
28, -25958.02, -30716.68, -19861.51, -15817.79, -19530.33, -20726.97, -23577.20, -22199.35, 0.008, -0.018, 0.974, 10:41:49.499, 1583739709499
29, -26025.99, -30714.49, -19896.09, -15839.74, -19642.31, -20734.04, -23591.95, -22263.48, 0.000, 0.000, 0.000, 10:41:49.499, 1583739709499
30, -25447.04, -30635.34, -19795.35, -15761.91, -19050.23, -20703.15, -23304.69, -21986.63, 0.000, 0.000, 0.000, 10:41:49.499, 1583739709499
31, -25047.41, -30613.53, -19708.61, -15692.53, -18586.66, -20674.67, -23136.87, -21761.97, 0.000, 0.000, 0.000, 10:41:49.499, 1583739709499
32, -25437.27, -30681.10, -19770.27, -15727.87, -18928.62, -20690.81, -23348.86, -21921.29, 0.000, 0.000, 0.000, 10:41:49.500, 1583739709500
33, -25954.93, -30726.99, -19868.49, -15822.40, -19534.46, -20728.94, -23582.97, -22197.36, 0.000, 0.000, 0.000, 10:41:49.500, 1583739709500
34, -26032.12, -30723.28, -19898.01, -15838.16, -19645.66, -20730.50, -23595.33, -22258.49, 0.000, 0.000, 0.000, 10:41:49.500, 1583739709500
35, -25445.92, -30641.96, -19792.89, -15761.31, -19049.83, -20695.05, -23301.36, -21976.01, 0.000, 0.000, 0.000, 10:41:49.500, 1583739709500
36, -25049.20, -30607.56, -19701.86, -15692.44, -18580.80, -20667.25, -23129.72, -21752.36, 0.000, 0.000, 0.000, 10:41:49.500, 1583739709500
37, -25443.26, -30673.34, -19753.96, -15712.09, -18908.86, -20676.12, -23333.43, -21904.51, 0.000, 0.000, 0.000, 10:41:49.500, 1583739709500
38, -25959.83, -30727.66, -19858.94, -15809.63, -19517.59, -20717.38, -23572.66, -22185.58, 0.006, -0.020, 0.974, 10:41:49.501, 1583739709501
39, -26037.05, -30726.03, -19883.87, -15825.06, -19630.91, -20717.34, -23586.72, -22249.46, 0.000, 0.000, 0.000, 10:41:49.501, 1583739709501
40, -25458.21, -30644.44, -19771.26, -15738.69, -19035.08, -20678.63, -23291.52, -21968.50, 0.000, 0.000, 0.000, 10:41:49.501, 1583739709501
41, -25045.91, -30605.37, -19680.42, -15671.75, -18560.20, -20653.06, -23113.98, -21742.57, 0.000, 0.000, 0.000, 10:41:49.501, 1583739709501
42, -25429.33, -30665.83, -19737.13, -15702.23, -18890.33, -20668.61, -23319.06, -21898.83, 0.000, 0.000, 0.000, 10:41:49.501, 1583739709501
43, -25953.88, -30727.59, -19846.27, -15804.38, -19503.95, -20713.14, -23563.03, -22183.39, 0.000, 0.000, 0.000, 10:41:49.501, 1583739709501
44, -26039.24, -30730.50, -19878.39, -15822.26, -19625.93, -20716.87, -23582.43, -22251.79, 0.000, 0.000, 0.000, 10:41:49.502, 1583739709502
45, -25467.15, -30656.29, -19774.79, -15746.83, -19036.20, -20687.30, -23293.40, -21978.34, 0.000, 0.000, 0.000, 10:41:49.502, 1583739709502
46, -25044.90, -30616.61, -19684.98, -15681.33, -18561.36, -20662.20, -23116.66, -21752.90, 0.000, 0.000, 0.000, 10:41:49.502, 1583739709502
47, -25428.33, -30678.64, -19750.29, -15719.18, -18897.26, -20685.80, -23327.93, -21916.15, 0.000, 0.000, 0.000, 10:41:49.502, 1583739709502
48, -25948.23, -30730.79, -19868.53, -15825.75, -19519.46, -20736.29, -23578.45, -22207.37, 0.006, -0.024, 0.972, 10:41:49.502, 1583739709502
49, -26036.88, -30729.78, -19902.46, -15848.57, -19649.31, -20741.81, -23601.59, -22278.59, 0.000, 0.000, 0.000, 10:41:49.502, 1583739709502
50, -25471.51, -30650.19, -19788.42, -15763.43, -19058.42, -20701.94, -23308.22, -21998.94, 0.000, 0.000, 0.000, 10:41:49.502, 1583739709502
51, -25053.22, -30608.61, -19696.38, -15690.95, -18576.36, -20672.21, -23127.77, -21767.83, 0.000, 0.000, 0.000, 10:41:49.503, 1583739709503
52, -25428.10, -30672.54, -19762.50, -15728.99, -18906.36, -20693.63, -23336.85, -21924.54, 0.000, 0.000, 0.000, 10:41:49.504, 1583739709504
53, -25952.81, -30718.38, -19872.40, -15837.01, -19527.18, -20742.80, -23584.26, -22211.17, 0.000, 0.000, 0.000, 10:41:49.504, 1583739709504
54, -26045.95, -30715.70, -19902.87, -15843.81, -19655.45, -20740.41, -23607.35, -22276.91, 0.000, 0.000, 0.000, 10:41:49.504, 1583739709504
55, -25481.12, -30650.90, -19797.63, -15755.88, -19071.33, -20701.27, -23322.28, -21999.95, 0.000, 0.000, 0.000, 10:41:49.504, 1583739709504
56, -25052.42, -30629.06, -19708.76, -15691.24, -18590.66, -20677.46, -23142.26, -21770.15, 0.000, 0.000, 0.000, 10:41:49.504, 1583739709504
57, -25422.78, -30682.98, -19769.49, -15727.67, -18912.79, -20696.55, -23348.16, -21921.99, 0.000, 0.000, 0.000, 10:41:49.504, 1583739709504
58, -25950.84, -30724.95, -19885.45, -15835.45, -19534.44, -20745.50, -23595.26, -22207.64, 0.006, -0.026, 0.972, 10:41:49.504, 1583739709504
59, -26045.97, -30727.66, -19918.11, -15852.50, -19667.79, -20745.93, -23617.48, -22279.10, 0.000, 0.000, 0.000, 10:41:49.504, 1583739709504
60, -25468.85, -30642.61, -19803.00, -15764.44, -19076.19, -20704.22, -23322.41, -21999.53, 0.000, 0.000, 0.000, 10:41:49.505, 1583739709505
61, -25037.28, -30601.06, -19704.04, -15689.23, -18581.65, -20671.90, -23132.45, -21760.54, 0.000, 0.000, 0.000, 10:41:49.505, 1583739709505
62, -25418.11, -30670.64, -19761.49, -15724.09, -18898.56, -20689.29, -23333.14, -21909.76, 0.000, 0.000, 0.000, 10:41:49.505, 1583739709505
63, -25946.82, -30720.86, -19869.56, -15824.23, -19513.90, -20731.29, -23579.08, -22191.50, 0.000, 0.000, 0.000, 10:41:49.505, 1583739709505
64, -26041.88, -30715.07, -19895.11, -15828.90, -19644.28, -20723.93, -23600.36, -22257.89, 0.000, 0.000, 0.000, 10:41:49.505, 1583739709505
65, -25469.46, -30630.56, -19776.85, -15731.51, -19052.87, -20675.56, -23302.63, -21975.14, 0.000, 0.000, 0.000, 10:41:49.505, 1583739709505
66, -25036.66, -30579.40, -19684.15, -15665.89, -18559.41, -20649.48, -23115.48, -21739.73, 0.000, 0.000, 0.000, 10:41:49.505, 1583739709505
67, -25401.57, -30657.67, -19744.73, -15706.15, -18874.01, -20672.03, -23317.16, -21890.92, 0.000, 0.000, 0.000, 10:41:49.505, 1583739709505
68, -25925.36, -30716.15, -19856.08, -15820.70, -19496.64, -20724.51, -23563.79, -22181.71, 0.000, 0.000, 0.000, 10:41:49.505, 1583739709505
69, -26032.12, -30710.78, -19884.71, -15835.07, -19635.72, -20724.36, -23588.26, -22256.64, 0.002, -0.030, 0.966, 10:41:49.506, 1583739709506
70, -25472.45, -30639.05, -19779.04, -15741.71, -19056.89, -20683.12, -23301.74, -21984.19, 0.000, 0.000, 0.000, 10:41:49.506, 1583739709506
71, -25033.19, -30605.79, -19682.86, -15669.89, -18560.55, -20654.84, -23112.06, -21748.29, 0.000, 0.000, 0.000, 10:41:49.506, 1583739709506
72, -25392.74, -30666.73, -19744.75, -15708.67, -18871.96, -20679.65, -23315.97, -21902.05, 0.000, 0.000, 0.000, 10:41:49.506, 1583739709506
73, -25920.51, -30709.04, -19859.68, -15814.69, -19497.22, -20727.87, -23566.83, -22190.01, 0.000, 0.000, 0.000, 10:41:49.506, 1583739709506
74, -26043.40, -30705.98, -19902.64, -15845.71, -19655.47, -20739.60, -23601.47, -22274.74, 0.000, 0.000, 0.000, 10:41:49.506, 1583739709506
75, -25484.97, -30644.84, -19800.18, -15770.41, -19082.87, -20708.38, -23320.22, -22009.31, 0.000, 0.000, 0.000, 10:41:49.506, 1583739709506
76, -25043.65, -30604.72, -19700.56, -15691.28, -18581.70, -20675.14, -23130.95, -21769.26, 0.000, 0.000, 0.000, 10:41:49.506, 1583739709506
77, -25404.12, -30673.88, -19754.52, -15715.33, -18881.66, -20687.81, -23326.50, -21910.95, 0.000, 0.000, 0.000, 10:41:49.506, 1583739709506
78, -25934.53, -30728.15, -19869.11, -15821.08, -19507.02, -20734.68, -23573.02, -22197.20, 0.000, 0.000, 0.000, 10:41:49.507, 1583739709507
79, -26044.97, -30727.59, -19911.18, -15848.33, -19664.55, -20743.63, -23606.66, -22280.38, 0.002, -0.026, 0.970, 10:41:49.507, 1583739709507
80, -25488.21, -30648.40, -19803.85, -15761.51, -19089.53, -20704.06, -23320.36, -22008.29, 0.000, 0.000, 0.000, 10:41:49.507, 1583739709507
81, -25044.03, -30609.53, -19701.74, -15686.19, -18583.49, -20672.32, -23127.55, -21764.16, 0.000, 0.000, 0.000, 10:41:49.507, 1583739709507
82, -25395.65, -30673.50, -19762.50, -15718.68, -18886.98, -20690.99, -23329.34, -21906.14, 0.000, 0.000, 0.000, 10:41:49.507, 1583739709507
83, -25931.62, -30726.21, -19876.40, -15817.21, -19512.65, -20736.27, -23582.86, -22191.97, 0.000, 0.000, 0.000, 10:41:49.507, 1583739709507
84, -26049.71, -30725.49, -19906.51, -15833.06, -19667.01, -20735.13, -23611.98, -22271.63, 0.000, 0.000, 0.000, 10:41:49.507, 1583739709507
85, -25489.50, -30651.01, -19801.43, -15754.38, -19095.70, -20697.42, -23325.63, -22002.54, 0.000, 0.000, 0.000, 10:41:49.507, 1583739709507
86, -25039.68, -30599.13, -19710.19, -15691.06, -18592.52, -20673.48, -23133.07, -21762.82, 0.000, 0.000, 0.000, 10:41:49.507, 1583739709507
87, -25400.57, -30658.75, -19760.39, -15715.94, -18885.55, -20686.96, -23327.26, -21901.07, 0.000, 0.000, 0.000, 10:41:49.508, 1583739709508
88, -25935.49, -30704.39, -19864.98, -15811.31, -19502.16, -20725.79, -23572.98, -22183.48, 0.000, 0.000, 0.000, 10:41:49.508, 1583739709508
89, -26048.88, -30717.42, -19903.67, -15830.38, -19662.96, -20725.74, -23604.80, -22263.28, 0.002, -0.020, 0.976, 10:41:49.508, 1583739709508
90, -25497.97, -30663.17, -19801.46, -15751.30, -19095.07, -20690.65, -23322.48, -21998.81, 0.000, 0.000, 0.000, 10:41:49.508, 1583739709508
91, -25044.59, -30611.16, -19692.85, -15679.21, -18578.41, -20661.95, -23121.56, -21754.84, 0.000, 0.000, 0.000, 10:41:49.508, 1583739709508
92, -25390.06, -30657.74, -19741.64, -15709.27, -18864.89, -20679.48, -23314.46, -21894.05, 0.000, 0.000, 0.000, 10:41:49.508, 1583739709508
93, -25921.34, -30709.73, -19852.13, -15808.99, -19488.20, -20722.95, -23563.41, -22179.52, 0.000, 0.000, 0.000, 10:41:49.508, 1583739709508
94, -26040.83, -30719.70, -19889.12, -15827.36, -19654.07, -20724.56, -23598.81, -22264.15, 0.000, 0.000, 0.000, 10:41:49.508, 1583739709508
95, -25498.24, -30655.53, -19788.63, -15752.10, -19091.50, -20692.04, -23320.63, -22002.90, 0.000, 0.000, 0.000, 10:41:49.508, 1583739709508
96, -25051.43, -30618.13, -19695.19, -15691.04, -18583.42, -20671.61, -23123.55, -21762.71, 0.000, 0.000, 0.000, 10:41:49.509, 1583739709509
97, -25391.80, -30657.14, -19748.99, -15720.92, -18868.38, -20689.36, -23316.91, -21899.77, 0.000, 0.000, 0.000, 10:41:49.509, 1583739709509
98, -25925.99, -30702.76, -19852.42, -15811.29, -19488.04, -20726.37, -23565.24, -22183.19, 0.000, 0.000, 0.000, 10:41:49.509, 1583739709509
99, -26050.69, -30718.02, -19883.15, -15823.85, -19652.90, -20724.25, -23598.35, -22267.57, 0.002, -0.022, 0.970, 10:41:49.509, 1583739709509
100, -25512.75, -30658.48, -19783.44, -15746.27, -19092.77, -20690.23, -23320.47, -22005.65, 0.000, 0.000, 0.000, 10:41:49.509, 1583739709509
101, -25052.01, -30626.72, -19689.72, -15677.49, -18582.66, -20664.79, -23124.46, -21761.03, 0.000, 0.000, 0.000, 10:41:49.509, 1583739709509
102, -25385.54, -30679.78, -19747.36, -15712.02, -18869.97, -20686.23, -23318.48, -21898.90, 0.000, 0.000, 0.000, 10:41:49.510, 1583739709510
103, -25929.83, -30729.15, -19864.35, -15823.67, -19499.59, -20736.85, -23574.14, -22190.61, 0.000, 0.000, 0.000, 10:41:49.510, 1583739709510
104, -26061.69, -30728.57, -19908.32, -15848.62, -19676.26, -20741.88, -23617.93, -22281.65, 0.000, 0.000, 0.000, 10:41:49.510, 1583739709510
105, -25518.70, -30662.28, -19800.54, -15761.62, -19112.64, -20700.87, -23338.44, -22018.23, 0.000, 0.000, 0.000, 10:41:49.510, 1583739709510
106, -25052.66, -30607.49, -19697.61, -15685.69, -18590.46, -20670.15, -23133.81, -21767.11, 0.000, 0.000, 0.000, 10:41:49.510, 1583739709510
107, -25385.68, -30657.29, -19755.77, -15719.38, -18872.05, -20689.27, -23324.25, -21900.13, 0.000, 0.000, 0.000, 10:41:49.510, 1583739709510
108, -25930.84, -30721.60, -19878.54, -15832.05, -19507.19, -20743.00, -23584.58, -22194.70, 0.000, 0.000, 0.000, 10:41:49.511, 1583739709511
109, -26068.08, -30732.57, -19922.96, -15853.22, -19690.66, -20747.11, -23630.08, -22286.74, -0.002, -0.020, 0.970, 10:41:49.511, 1583739709511
110, -25522.49, -30652.20, -19811.20, -15761.40, -19125.40, -20700.87, -23345.81, -22019.66, 0.000, 0.000, 0.000, 10:41:49.511, 1583739709511
111, -25047.54, -30603.83, -19698.35, -15687.66, -18593.37, -20668.21, -23134.30, -21767.67, 0.000, 0.000, 0.000, 10:41:49.511, 1583739709511
112, -25379.04, -30665.05, -19747.43, -15711.69, -18860.42, -20680.75, -23315.46, -21893.53, 0.000, 0.000, 0.000, 10:41:49.511, 1583739709511
113, -25922.01, -30730.61, -19860.89, -15808.92, -19486.16, -20724.67, -23570.05, -22181.36, 0.000, 0.000, 0.000, 10:41:49.511, 1583739709511
114, -26068.55, -30732.64, -19898.77, -15830.22, -19667.90, -20727.06, -23612.18, -22274.41, 0.000, 0.000, 0.000, 10:41:49.511, 1583739709511
115, -25531.77, -30662.30, -19795.71, -15749.93, -19113.69, -20689.85, -23332.61, -22014.54, 0.000, 0.000, 0.000, 10:41:49.512, 1583739709512
116, -25055.10, -30613.82, -19694.05, -15680.40, -18586.17, -20662.31, -23122.07, -21761.79, 0.000, 0.000, 0.000, 10:41:49.512, 1583739709512
117, -25379.60, -30660.49, -19748.01, -15711.87, -18857.90, -20682.78, -23308.85, -21893.44, 0.000, 0.000, 0.000, 10:41:49.512, 1583739709512
118, -25917.05, -30713.84, -19860.69, -15818.80, -19485.78, -20732.29, -23564.26, -22185.11, 0.000, 0.000, 0.000, 10:41:49.512, 1583739709512
119, -26064.86, -30716.73, -19905.37, -15848.33, -19674.38, -20742.46, -23613.79, -22286.41, 0.000, -0.018, 0.976, 10:41:49.513, 1583739709513
120, -25528.66, -30645.22, -19805.28, -15765.85, -19124.98, -20705.16, -23336.36, -22027.13, 0.000, 0.000, 0.000, 10:41:49.513, 1583739709513
121, -25055.12, -30613.78, -19702.66, -15690.01, -18594.79, -20676.21, -23128.11, -21772.10, 0.000, 0.000, 0.000, 10:41:49.973, 1583739709973
122, -25378.55, -30667.29, -19750.76, -15711.69, -18853.54, -20688.04, -23311.46, -21894.67, 0.000, 0.000, 0.000, 10:41:49.973, 1583739709973
123, -25916.60, -30719.83, -19857.98, -15810.55, -19477.67, -20730.77, -23565.53, -22182.29, 0.000, 0.000, 0.000, 10:41:49.973, 1583739709973
124, -26070.65, -30727.97, -19897.39, -15831.20, -19667.05, -20730.48, -23611.11, -22276.11, 0.000, 0.000, 0.000, 10:41:49.973, 1583739709973
125, -25541.38, -30661.99, -19800.98, -15755.86, -19123.91, -20697.00, -23340.05, -22023.13, 0.000, 0.000, 0.000, 10:41:49.974, 1583739709974
126, -25062.65, -30616.08, -19701.12, -15689.74, -18591.02, -20672.26, -23129.74, -21771.13, 0.000, 0.000, 0.000, 10:41:49.974, 1583739709974
127, -25383.67, -30676.29, -19757.85, -15726.15, -18856.31, -20694.61, -23316.60, -21902.03, 0.000, 0.000, 0.000, 10:41:49.974, 1583739709974
128, -25923.73, -30733.98, -19874.10, -15827.52, -19489.58, -20740.07, -23574.36, -22190.79, 0.000, 0.000, 0.000, 10:41:49.974, 1583739709974
129, -26070.13, -30728.91, -19911.00, -15842.71, -19683.50, -20737.52, -23619.56, -22282.63, 0.000, -0.018, 0.972, 10:41:49.974, 1583739709974
130, -25543.73, -30655.77, -19802.35, -15751.30, -19132.87, -20692.42, -23343.40, -22022.44, 0.000, 0.000, 0.000, 10:41:49.978, 1583739709978
131, -25061.22, -30611.41, -19701.32, -15681.47, -18596.36, -20665.30, -23132.76, -21768.07, 0.000, 0.000, 0.000, 10:41:49.979, 1583739709979
132, -25368.67, -30662.99, -19752.35, -15712.52, -18850.39, -20681.80, -23314.52, -21889.91, 0.000, 0.000, 0.000, 10:41:49.979, 1583739709979
133, -25914.21, -30712.12, -19862.92, -15821.28, -19479.75, -20729.25, -23571.79, -22179.88, 0.000, 0.000, 0.000, 10:41:49.979, 1583739709979
134, -26075.25, -30717.02, -19902.91, -15843.63, -19678.23, -20732.23, -23622.60, -22279.93, 0.000, 0.000, 0.000, 10:41:49.979, 1583739709979
135, -25542.95, -30644.69, -19806.37, -15756.95, -19138.81, -20693.47, -23352.61, -22025.65, 0.000, 0.000, 0.000, 10:41:49.979, 1583739709979
136, -25052.59, -30598.73, -19704.20, -15686.03, -18598.71, -20667.05, -23136.67, -21768.16, 0.000, 0.000, 0.000, 10:41:49.979, 1583739709979
137, -25362.10, -30653.00, -19748.41, -15708.47, -18844.67, -20680.44, -23311.46, -21885.40, 0.000, 0.000, 0.000, 10:41:49.979, 1583739709979
138, -25911.30, -30719.66, -19862.52, -15818.20, -19475.37, -20730.26, -23569.53, -22179.68, 0.000, 0.000, 0.000, 10:41:49.980, 1583739709980
139, -26077.42, -30730.99, -19907.96, -15849.76, -19683.77, -20739.45, -23621.01, -22284.93, -0.004, -0.020, 0.972, 10:41:49.980, 1583739709980
140, -25551.24, -30662.23, -19812.12, -15773.71, -19149.79, -20705.45, -23350.15, -22035.22, 0.000, 0.000, 0.000, 10:41:49.980, 1583739709980
141, -25060.71, -30617.33, -19706.73, -15697.29, -18605.48, -20677.78, -23134.03, -21775.72, 0.000, 0.000, 0.000, 10:41:49.980, 1583739709980
142, -25364.47, -30662.84, -19745.57, -15708.94, -18841.78, -20686.56, -23305.85, -21889.22, 0.000, 0.000, 0.000, 10:41:49.980, 1583739709980
143, -25910.30, -30714.00, -19854.23, -15809.41, -19467.81, -20731.89, -23562.58, -22179.99, 0.000, 0.000, 0.000, 10:41:49.980, 1583739709980
144, -26069.89, -30725.29, -19898.33, -15837.40, -19678.25, -20738.37, -23617.10, -22285.52, 0.000, 0.000, 0.000, 10:41:49.980, 1583739709980
145, -25548.51, -30649.90, -19803.38, -15763.34, -19146.53, -20701.92, -23345.88, -22035.02, 0.000, 0.000, 0.000, 10:41:49.980, 1583739709980
146, -25054.16, -30593.08, -19701.79, -15691.10, -18599.11, -20672.55, -23126.50, -21773.08, 0.000, 0.000, 0.000, 10:41:49.980, 1583739709980
147, -25354.14, -30654.99, -19742.49, -15702.23, -18829.47, -20678.11, -23296.57, -21879.59, 0.000, 0.000, 0.000, 10:41:49.980, 1583739709980
148, -25900.28, -30704.97, -19845.78, -15796.74, -19451.76, -20716.65, -23550.40, -22161.89, 0.000, 0.000, 0.000, 10:41:49.981, 1583739709981
149, -26066.04, -30713.49, -19889.03, -15823.27, -19663.88, -20719.22, -23605.50, -22265.71, -0.002, -0.020, 0.972, 10:41:49.981, 1583739709981
150, -25550.59, -30653.56, -19801.72, -15755.21, -19142.50, -20689.29, -23346.82, -22023.78, 0.000, 0.000, 0.000, 10:41:49.981, 1583739709981
151, -25044.01, -30607.67, -19700.63, -15681.89, -18595.09, -20660.77, -23128.15, -21762.28, 0.000, 0.000, 0.000, 10:41:49.981, 1583739709981
152, -25346.77, -30646.68, -19744.75, -15702.39, -18825.89, -20675.05, -23299.32, -21875.45, 0.000, 0.000, 0.000, 10:41:49.981, 1583739709981
153, -25896.66, -30710.04, -19851.28, -15798.23, -19450.58, -20716.80, -23553.11, -22162.00, 0.000, 0.000, 0.000, 10:41:49.981, 1583739709981
154, -26067.05, -30725.58, -19891.91, -15825.53, -19666.49, -20721.74, -23610.82, -22270.05, 0.000, 0.000, 0.000, 10:41:49.981, 1583739709981
155, -25558.15, -30658.84, -19798.66, -15749.58, -19144.11, -20689.98, -23350.15, -22029.45, 0.000, 0.000, 0.000, 10:41:49.982, 1583739709982
156, -25056.39, -30605.84, -19696.00, -15677.04, -18593.99, -20662.89, -23129.23, -21766.84, 0.000, 0.000, 0.000, 10:41:49.982, 1583739709982
157, -25346.86, -30657.94, -19742.54, -15697.03, -18822.29, -20675.56, -23299.93, -21876.59, 0.000, 0.000, 0.000, 10:41:49.983, 1583739709983
158, -25904.24, -30728.42, -19861.07, -15807.02, -19457.13, -20728.67, -23564.28, -22170.67, 0.000, 0.000, 0.000, 10:41:49.983, 1583739709983
159, -26083.75, -30735.37, -19914.33, -15847.68, -19687.66, -20742.55, -23629.66, -22287.59, 0.000, 0.000, 0.000, 10:41:49.983, 1583739709983
160, -25572.96, -30667.55, -19820.19, -15774.56, -19168.32, -20708.33, -23365.15, -22045.50, 0.000, -0.018, 0.968, 10:41:49.983, 1583739709983
161, -25067.97, -30617.57, -19711.87, -15701.92, -18612.43, -20681.38, -23141.56, -21782.82, 0.000, 0.000, 0.000, 10:41:49.983, 1583739709983
162, -25347.37, -30664.56, -19745.73, -15708.18, -18826.85, -20684.86, -23303.15, -21884.01, 0.000, 0.000, 0.000, 10:41:49.984, 1583739709984
163, -25895.48, -30722.58, -19857.71, -15807.22, -19455.38, -20729.83, -23561.35, -22171.72, 0.000, 0.000, 0.000, 10:41:49.984, 1583739709984
164, -26083.75, -30730.74, -19904.99, -15838.58, -19684.26, -20738.42, -23624.61, -22286.68, 0.000, 0.000, 0.000, 10:41:49.984, 1583739709984
165, -25576.09, -30665.09, -19804.29, -15754.78, -19161.75, -20698.90, -23359.23, -22041.05, 0.000, 0.000, 0.000, 10:41:49.984, 1583739709984
166, -25064.62, -30617.02, -19697.94, -15685.43, -18605.08, -20671.81, -23133.74, -21774.42, 0.000, 0.000, 0.000, 10:41:49.984, 1583739709984
167, -25344.53, -30666.23, -19740.61, -15704.80, -18820.53, -20682.38, -23297.80, -21876.70, 0.000, 0.000, 0.000, 10:41:49.984, 1583739709984
168, -25895.66, -30721.60, -19854.52, -15807.87, -19449.73, -20728.94, -23559.01, -22165.91, 0.000, 0.000, 0.000, 10:41:49.985, 1583739709985
169, -26080.04, -30724.55, -19905.10, -15841.93, -19685.87, -20737.93, -23624.65, -22282.99, 0.000, 0.000, 0.000, 10:41:49.985, 1583739709985
170, -25574.02, -30668.63, -19808.61, -15766.25, -19167.20, -20701.49, -23360.34, -22041.88, 0.002, -0.018, 0.966, 10:41:49.985, 1583739709985
171, -25062.56, -30620.57, -19699.89, -15686.41, -18602.53, -20669.35, -23131.02, -21770.69, 0.000, 0.000, 0.000, 10:41:49.985, 1583739709985
172, -25337.62, -30657.34, -19740.93, -15702.97, -18815.16, -20679.74, -23294.85, -21871.43, 0.000, 0.000, 0.000, 10:41:49.985, 1583739709985
173, -25888.82, -30713.40, -19855.70, -15804.56, -19445.03, -20726.24, -23557.08, -22160.30, 0.000, 0.000, 0.000, 10:41:49.986, 1583739709986
174, -26078.72, -30726.54, -19907.04, -15842.80, -19683.86, -20735.96, -23625.41, -22279.01, 0.000, 0.000, 0.000, 10:41:49.986, 1583739709986
175, -25574.53, -30656.06, -19805.14, -15760.15, -19168.36, -20694.94, -23360.01, -22035.51, 0.000, 0.000, 0.000, 10:41:49.986, 1583739709986
176, -25051.30, -30608.23, -19690.95, -15671.41, -18597.25, -20657.50, -23124.80, -21759.94, 0.000, 0.000, 0.000, 10:41:49.986, 1583739709986
177, -25329.55, -30652.67, -19731.94, -15686.99, -18801.19, -20665.77, -23282.78, -21857.90, 0.000, 0.000, 0.000, 10:41:49.986, 1583739709986
178, -25888.93, -30706.87, -19843.90, -15792.92, -19431.13, -20714.12, -23543.36, -22148.66, 0.000, 0.000, 0.000, 10:41:49.986, 1583739709986
179, -26078.52, -30733.65, -19901.63, -15837.35, -19680.87, -20730.73, -23618.01, -22275.41, 0.000, 0.000, 0.000, 10:41:49.987, 1583739709987
180, -25583.34, -30665.12, -19814.40, -15765.96, -19181.51, -20697.20, -23364.93, -22041.52, 0.004, -0.018, 0.966, 10:41:49.987, 1583739709987
181, -25060.69, -30608.97, -19704.00, -15686.05, -18612.23, -20664.72, -23132.94, -21767.80, 0.000, 0.000, 0.000, 10:41:49.987, 1583739709987
182, -25337.96, -30666.23, -19737.73, -15699.60, -18814.96, -20675.41, -23294.41, -21868.16, 0.000, 0.000, 0.000, 10:41:49.987, 1583739709987
183, -25890.43, -30720.95, -19850.85, -15799.78, -19443.16, -20722.95, -23557.51, -22159.76, 0.000, 0.000, 0.000, 10:41:49.987, 1583739709987
184, -26084.89, -30732.06, -19908.74, -15845.08, -19693.76, -20739.18, -23633.08, -22286.63, 0.000, 0.000, 0.000, 10:41:49.988, 1583739709988
185, -25595.18, -30674.33, -19821.55, -15771.10, -19192.41, -20704.98, -23379.28, -22053.35, 0.000, 0.000, 0.000, 10:41:49.988, 1583739709988
186, -25073.25, -30623.07, -19713.03, -15688.15, -18620.88, -20672.72, -23144.45, -21779.96, 0.000, 0.000, 0.000, 10:41:49.988, 1583739709988
187, -25334.63, -30670.93, -19744.17, -15698.66, -18813.46, -20680.86, -23298.81, -21873.75, 0.000, 0.000, 0.000, 10:41:49.988, 1583739709988
188, -25883.52, -30727.14, -19853.80, -15804.22, -19441.35, -20728.61, -23558.45, -22163.36, 0.000, 0.000, 0.000, 10:41:49.988, 1583739709988
189, -26092.11, -30739.32, -19902.37, -15843.21, -19690.37, -20740.83, -23628.25, -22288.35, 0.000, 0.000, 0.000, 10:41:49.988, 1583739709988
190, -25604.37, -30675.09, -19812.99, -15771.50, -19190.25, -20707.35, -23373.87, -22057.30, 0.010, -0.014, 0.970, 10:41:49.988, 1583739709988
191, -25072.20, -30611.61, -19701.52, -15692.94, -18614.53, -20674.89, -23135.37, -21780.54, 0.000, 0.000, 0.000, 10:41:49.988, 1583739709988
192, -25329.26, -30664.25, -19738.47, -15709.23, -18808.75, -20687.50, -23292.62, -21876.48, 0.000, 0.000, 0.000, 10:41:49.988, 1583739709988
193, -25881.35, -30731.70, -19854.79, -15816.59, -19441.41, -20737.59, -23559.45, -22168.37, 0.000, 0.000, 0.000, 10:41:49.989, 1583739709989
194, -26087.66, -30742.07, -19905.14, -15845.89, -19695.15, -20741.52, -23630.46, -22289.65, 0.000, 0.000, 0.000, 10:41:49.989, 1583739709989
195, -25602.67, -30674.17, -19812.52, -15767.59, -19196.06, -20703.57, -23373.84, -22057.46, 0.000, 0.000, 0.000, 10:41:49.989, 1583739709989
196, -25067.84, -30620.82, -19701.86, -15690.92, -18619.54, -20675.50, -23136.00, -21781.60, 0.000, 0.000, 0.000, 10:41:49.989, 1583739709989
197, -25324.97, -30668.25, -19743.27, -15710.75, -18810.69, -20688.95, -23291.95, -21874.53, 0.000, 0.000, 0.000, 10:41:49.989, 1583739709989
198, -25877.53, -30729.38, -19855.77, -15816.41, -19439.40, -20737.08, -23556.48, -22165.87, 0.000, 0.000, 0.000, 10:41:49.989, 1583739709989
199, -26091.57, -30737.36, -19907.56, -15852.64, -19702.55, -20747.18, -23635.67, -22296.38, 0.000, 0.000, 0.000, 10:41:49.989, 1583739709989
200, -25614.63, -30673.21, -19818.46, -15774.90, -19208.64, -20709.92, -23384.28, -22065.75, 0.010, -0.016, 0.966, 10:41:49.989, 1583739709989
201, -25077.79, -30620.64, -19709.37, -15699.78, -18627.92, -20680.41, -23144.13, -21787.72, 0.000, 0.000, 0.000, 10:41:49.989, 1583739709989
202, -25325.98, -30670.64, -19745.80, -15710.21, -18810.82, -20688.82, -23296.87, -21876.52, 0.000, 0.000, 0.000, 10:41:49.990, 1583739709990
203, -25880.44, -30727.10, -19856.06, -15811.78, -19440.07, -20733.25, -23560.32, -22165.64, 0.000, 0.000, 0.000, 10:41:49.990, 1583739709990
204, -26084.28, -30729.40, -19903.80, -15842.85, -19697.29, -20737.81, -23631.87, -22289.63, 0.000, 0.000, 0.000, 10:41:49.990, 1583739709990
205, -25610.85, -30681.01, -19817.75, -15764.64, -19207.32, -20700.78, -23383.93, -22060.70, 0.000, 0.000, 0.000, 10:41:49.990, 1583739709990
206, -25082.28, -30630.38, -19706.57, -15687.39, -18625.08, -20669.93, -23142.97, -21781.24, 0.000, 0.000, 0.000, 10:41:49.990, 1583739709990
207, -25328.15, -30666.06, -19737.08, -15699.55, -18799.92, -20679.32, -23290.83, -21865.97, 0.000, 0.000, 0.000, 10:41:49.990, 1583739709990
208, -25881.11, -30723.63, -19851.92, -15805.50, -19427.96, -20729.88, -23555.92, -22157.11, 0.000, 0.000, 0.000, 10:41:49.990, 1583739709990
209, -26091.79, -30743.19, -19905.39, -15840.81, -19692.65, -20737.48, -23631.87, -22284.78, 0.000, 0.000, 0.000, 10:41:49.990, 1583739709990
210, -25619.77, -30679.78, -19814.37, -15764.30, -19205.58, -20698.34, -23382.03, -22057.24, 0.010, -0.020, 0.964, 10:41:49.990, 1583739709990
211, -25087.80, -30620.30, -19702.28, -15688.67, -18620.99, -20668.52, -23138.68, -21778.20, 0.000, 0.000, 0.000, 10:41:49.991, 1583739709991
212, -25329.11, -30668.29, -19731.25, -15695.10, -18790.42, -20672.90, -23282.87, -21858.06, 0.000, 0.000, 0.000, 10:41:49.991, 1583739709991
213, -25872.39, -30723.79, -19843.23, -15800.25, -19416.71, -20722.46, -23545.19, -22146.87, 0.000, 0.000, 0.000, 10:41:49.991, 1583739709991
214, -26088.78, -30736.24, -19895.33, -15843.81, -19689.03, -20736.45, -23625.59, -22282.59, 0.000, 0.000, 0.000, 10:41:49.991, 1583739709991
215, -25622.27, -30680.36, -19805.37, -15763.95, -19207.05, -20697.36, -23378.18, -22057.08, 0.000, 0.000, 0.000, 10:41:49.991, 1583739709991
216, -25083.73, -30635.54, -19695.35, -15678.70, -18620.63, -20664.39, -23133.94, -21775.00, 0.000, 0.000, 0.000, 10:41:49.991, 1583739709991
217, -25323.95, -30673.63, -19725.68, -15690.28, -18785.77, -20672.32, -23276.23, -21855.49, 0.000, 0.000, 0.000, 10:41:49.991, 1583739709991
218, -25875.29, -30722.85, -19837.60, -15794.32, -19411.80, -20719.53, -23541.28, -22144.56, 0.000, 0.000, 0.000, 10:41:49.991, 1583739709991
219, -26091.48, -30732.28, -19897.68, -15841.64, -19690.75, -20735.24, -23627.07, -22283.55, 0.000, 0.000, 0.000, 10:41:49.992, 1583739709992
220, -25629.61, -30679.91, -19815.25, -15770.74, -19216.91, -20702.83, -23386.07, -22063.43, 0.008, -0.018, 0.972, 10:41:49.992, 1583739709992
221, -25088.96, -30630.72, -19707.46, -15695.19, -18632.99, -20675.56, -23144.54, -21783.61, 0.000, 0.000, 0.000, 10:41:49.992, 1583739709992
222, -25318.87, -30676.52, -19738.69, -15704.76, -18795.49, -20682.38, -23287.12, -21861.77, 0.000, 0.000, 0.000, 10:41:49.992, 1583739709992
223, -25874.31, -30732.22, -19842.83, -15800.36, -19416.56, -20725.14, -23546.15, -22148.14, 0.000, 0.000, 0.000, 10:41:49.992, 1583739709992
224, -26094.14, -30745.87, -19898.21, -15843.00, -19691.48, -20739.00, -23629.97, -22286.77, 0.000, 0.000, 0.000, 10:41:49.992, 1583739709992
225, -25630.16, -30682.84, -19815.42, -15776.69, -19221.29, -20707.08, -23386.63, -22069.71, 0.000, 0.000, 0.000, 10:41:49.992, 1583739709992
226, -25091.11, -30624.35, -19703.04, -15700.78, -18630.89, -20677.42, -23139.55, -21787.74, 0.000, 0.000, 0.000, 10:41:49.992, 1583739709992
227, -25315.65, -30675.98, -19730.71, -15701.41, -18785.68, -20680.08, -23279.56, -21860.34, 0.000, 0.000, 0.000, 10:41:49.992, 1583739709992
228, -25870.87, -30730.25, -19840.14, -15793.88, -19407.24, -20722.14, -23542.55, -22143.87, 0.000, 0.000, 0.000, 10:41:49.993, 1583739709993
229, -26101.72, -30737.38, -19898.15, -15836.01, -19688.40, -20734.55, -23627.47, -22282.56, 0.000, 0.000, 0.000, 10:41:49.994, 1583739709994
230, -25639.78, -30679.91, -19801.99, -15752.10, -19210.41, -20689.04, -23376.88, -22056.95, 0.006, -0.014, 0.970, 10:41:49.994, 1583739709994
231, -25088.20, -30629.98, -19689.52, -15677.94, -18616.61, -20660.03, -23128.78, -21773.08, 0.000, 0.000, 0.000, 10:41:49.994, 1583739709994
232, -25312.57, -30672.36, -19722.73, -15692.13, -18771.71, -20671.03, -23272.66, -21850.55, 0.000, 0.000, 0.000, 10:41:49.994, 1583739709994
233, -25869.44, -30729.04, -19837.35, -15795.22, -19399.12, -20719.40, -23538.67, -22140.21, 0.000, 0.000, 0.000, 10:41:49.994, 1583739709994
234, -26093.54, -30734.45, -19891.17, -15834.71, -19683.75, -20730.19, -23623.42, -22278.23, 0.000, 0.000, 0.000, 10:41:49.994, 1583739709994
235, -25633.22, -30661.38, -19806.24, -15764.48, -19219.44, -20697.04, -23383.48, -22062.51, 0.000, 0.000, 0.000, 10:41:49.995, 1583739709995
236, -25079.24, -30606.24, -19690.12, -15679.50, -18622.42, -20661.91, -23130.05, -21773.86, 0.000, 0.000, 0.000, 10:41:49.995, 1583739709995
237, -25298.31, -30660.29, -19719.63, -15688.55, -18771.49, -20669.44, -23267.74, -21848.29, 0.000, 0.000, 0.000, 10:41:49.995, 1583739709995
238, -25846.55, -30709.87, -19832.88, -15791.42, -19398.23, -20716.74, -23532.25, -22135.40, 0.000, 0.000, 0.000, 10:41:49.995, 1583739709995
239, -26084.84, -30725.42, -19894.86, -15841.04, -19691.13, -20734.44, -23622.64, -22278.97, 0.000, 0.000, 0.000, 10:41:49.995, 1583739709995
240, -25648.20, -30671.58, -19814.31, -15772.69, -19232.71, -20704.11, -23388.35, -22069.80, 0.008, -0.010, 0.976, 10:41:49.995, 1583739709995
241, -25092.71, -30622.89, -19699.60, -15691.08, -18632.32, -20671.70, -23136.36, -21783.03, 0.000, 0.000, 0.000, 10:41:50.454, 1583739710454
242, -25308.14, -30668.58, -19731.43, -15701.90, -18776.63, -20681.22, -23270.98, -21855.67, 0.000, 0.000, 0.000, 10:41:50.455, 1583739710455
243, -25862.62, -30722.85, -19839.10, -15795.42, -19396.15, -20722.17, -23532.81, -22139.04, 0.000, 0.000, 0.000, 10:41:50.455, 1583739710455
244, -26090.95, -30734.03, -19892.74, -15837.73, -19687.08, -20732.92, -23621.26, -22280.15, 0.000, 0.000, 0.000, 10:41:50.455, 1583739710455
245, -25647.06, -30673.43, -19808.21, -15768.22, -19226.72, -20697.78, -23382.58, -22066.63, 0.000, 0.000, 0.000, 10:41:50.455, 1583739710455
246, -25084.54, -30615.32, -19698.41, -15695.86, -18627.92, -20669.87, -23132.20, -21782.13, 0.000, 0.000, 0.000, 10:41:50.455, 1583739710455
247, -25303.16, -30664.40, -19729.68, -15704.76, -18769.92, -20679.45, -23271.47, -21852.94, 0.000, 0.000, 0.000, 10:41:50.456, 1583739710456
248, -25855.13, -30717.38, -19830.96, -15793.21, -19385.80, -20716.69, -23530.40, -22131.49, 0.000, 0.000, 0.000, 10:41:50.456, 1583739710456
249, -26089.65, -30718.38, -19886.55, -15830.56, -19677.60, -20724.89, -23617.01, -22271.32, 0.000, 0.000, 0.000, 10:41:50.456, 1583739710456
250, -25655.29, -30663.20, -19815.27, -15765.51, -19233.25, -20696.46, -23391.10, -22068.19, 0.000, 0.000, 0.000, 10:41:50.456, 1583739710456
251, -25098.04, -30618.07, -19702.03, -15687.66, -18633.17, -20667.14, -23139.02, -21782.49, 0.000, -0.012, 0.974, 10:41:50.456, 1583739710456
252, -25304.45, -30656.73, -19717.39, -15683.93, -18759.19, -20667.92, -23267.20, -21844.11, 0.000, 0.000, 0.000, 10:41:50.456, 1583739710456
253, -25854.98, -30724.35, -19829.42, -15791.48, -19383.79, -20719.28, -23533.23, -22133.41, 0.000, 0.000, 0.000, 10:41:50.456, 1583739710456
254, -26091.10, -30745.65, -19897.84, -15845.89, -19689.36, -20738.24, -23627.63, -22282.95, 0.000, 0.000, 0.000, 10:41:50.457, 1583739710457
255, -25656.47, -30686.04, -19812.29, -15767.41, -19235.82, -20697.49, -23390.76, -22070.63, 0.000, 0.000, 0.000, 10:41:50.457, 1583739710457
0, -25094.75, -30622.45, -19690.19, -15685.02, -18625.78, -20662.22, -23128.00, -21778.11, 0.000, 0.000, 0.000, 10:41:50.460, 1583739710460
1, -25292.21, -30663.73, -19713.16, -15684.75, -18749.65, -20664.25, -23253.99, -21837.97, 0.000, 0.000, 0.000, 10:41:50.460, 1583739710460
2, -25847.94, -30723.01, -19828.84, -15788.09, -19371.85, -20714.66, -23520.79, -22125.50, 0.000, 0.000, 0.000, 10:41:50.460, 1583739710460
3, -26089.45, -30736.46, -19891.46, -15837.80, -19678.45, -20731.55, -23617.57, -22276.64, 0.000, 0.000, 0.000, 10:41:50.460, 1583739710460
4, -25665.55, -30683.54, -19814.20, -15768.51, -19235.75, -20698.54, -23388.15, -22072.66, 0.000, 0.000, 0.000, 10:41:50.460, 1583739710460
5, -25097.54, -30617.89, -19691.13, -15679.35, -18622.82, -20659.96, -23126.59, -21776.90, -0.002, -0.018, 0.978, 10:41:50.460, 1583739710460
6, -25297.41, -30657.65, -19710.68, -15678.23, -18743.97, -20660.95, -23252.09, -21835.55, 0.000, 0.000, 0.000, 10:41:50.460, 1583739710460
7, -25845.48, -30705.98, -19820.28, -15777.78, -19363.34, -20706.37, -23515.17, -22117.90, 0.000, 0.000, 0.000, 10:41:50.460, 1583739710460
8, -26091.21, -30714.54, -19885.05, -15830.73, -19676.40, -20724.49, -23615.00, -22270.65, 0.000, 0.000, 0.000, 10:41:50.460, 1583739710460
9, -25669.81, -30668.98, -19813.01, -15768.02, -19242.41, -20695.95, -23393.83, -22072.88, 0.000, 0.000, 0.000, 10:41:50.461, 1583739710461
10, -25104.92, -30624.04, -19700.29, -15691.95, -18635.70, -20667.81, -23138.41, -21784.66, 0.000, 0.000, 0.000, 10:41:50.461, 1583739710461
11, -25292.32, -30675.29, -19721.44, -15689.63, -18749.65, -20668.23, -23257.71, -21839.64, 0.000, 0.000, 0.000, 10:41:50.461, 1583739710461
12, -25843.33, -30729.38, -19826.78, -15783.57, -19367.47, -20710.30, -23518.88, -22120.22, 0.000, 0.000, 0.000, 10:41:50.461, 1583739710461
13, -26089.89, -30739.84, -19890.91, -15838.69, -19682.19, -20728.92, -23616.83, -22272.15, 0.000, 0.000, 0.000, 10:41:50.461, 1583739710461
14, -25665.88, -30680.72, -19821.66, -15780.17, -19252.16, -20702.10, -23396.62, -22077.09, 0.000, 0.000, 0.000, 10:41:50.461, 1583739710461
15, -25094.53, -30619.63, -19701.10, -15692.20, -18637.98, -20666.58, -23136.65, -21783.29, 0.002, -0.016, 0.974, 10:41:50.461, 1583739710461
16, -25294.55, -30660.80, -19710.42, -15678.63, -18742.14, -20661.93, -23253.53, -21833.38, 0.000, 0.000, 0.000, 10:41:50.461, 1583739710461
17, -25844.18, -30724.21, -19820.41, -15774.77, -19359.49, -20707.68, -23517.83, -22116.07, 0.000, 0.000, 0.000, 10:41:50.461, 1583739710461
18, -26092.87, -30737.74, -19885.01, -15825.21, -19675.90, -20724.51, -23618.84, -22267.25, 0.000, 0.000, 0.000, 10:41:50.461, 1583739710461
19, -25676.92, -30679.47, -19809.10, -15757.13, -19244.65, -20691.10, -23393.92, -22067.27, 0.000, 0.000, 0.000, 10:41:50.461, 1583739710461
20, -25110.66, -30622.45, -19693.65, -15676.93, -18630.25, -20659.85, -23134.37, -21776.16, 0.000, 0.000, 0.000, 10:41:50.461, 1583739710461
21, -25295.11, -30654.50, -19711.96, -15680.96, -18738.25, -20665.17, -23256.45, -21832.94, 0.000, 0.000, 0.000, 10:41:50.462, 1583739710462
22, -25842.28, -30710.65, -19820.95, -15780.93, -19358.20, -20710.99, -23521.07, -22115.84, 0.000, 0.000, 0.000, 10:41:50.462, 1583739710462
23, -26097.63, -30735.79, -19889.45, -15834.82, -19682.86, -20731.20, -23625.50, -22272.66, 0.000, 0.000, 0.000, 10:41:50.462, 1583739710462
24, -25680.66, -30690.49, -19818.20, -15772.31, -19256.74, -20701.51, -23404.24, -22079.30, 0.000, 0.000, 0.000, 10:41:50.462, 1583739710462
25, -25109.48, -30630.45, -19701.59, -15693.43, -18641.89, -20670.07, -23140.96, -21787.29, 0.004, -0.020, 0.978, 10:41:50.462, 1583739710462
26, -25285.95, -30673.43, -19720.47, -15692.60, -18744.78, -20672.81, -23257.59, -21840.22, 0.000, 0.000, 0.000, 10:41:50.462, 1583739710462
27, -25835.80, -30729.71, -19827.14, -15782.61, -19359.36, -20712.73, -23518.71, -22117.86, 0.000, 0.000, 0.000, 10:41:50.462, 1583739710462
28, -26100.82, -30746.88, -19891.62, -15832.50, -19682.95, -20727.82, -23619.58, -22271.75, 0.000, 0.000, 0.000, 10:41:50.462, 1583739710462
29, -25690.36, -30688.36, -19817.08, -15763.03, -19254.91, -20694.14, -23399.01, -22075.70, 0.000, 0.000, 0.000, 10:41:50.462, 1583739710462
30, -25106.87, -30626.70, -19694.41, -15675.41, -18632.17, -20656.45, -23130.39, -21777.44, 0.000, 0.000, 0.000, 10:41:50.462, 1583739710462
31, -25286.01, -30666.32, -19718.57, -15684.51, -18733.58, -20666.18, -23249.03, -21832.15, 0.000, 0.000, 0.000, 10:41:50.462, 1583739710462
32, -25836.04, -30715.34, -19835.45, -15793.32, -19355.56, -20719.17, -23517.54, -22119.60, 0.000, 0.000, 0.000, 10:41:50.463, 1583739710463
33, -26090.23, -30716.97, -19898.39, -15842.04, -19681.80, -20735.62, -23619.80, -22276.87, 0.000, 0.000, 0.000, 10:41:50.463, 1583739710463
34, -25685.30, -30662.59, -19820.59, -15764.93, -19259.80, -20697.96, -23400.78, -22083.63, 0.000, 0.000, 0.000, 10:41:50.463, 1583739710463
35, -25104.61, -30627.61, -19695.98, -15680.60, -18637.64, -20663.05, -23132.96, -21785.15, 0.010, -0.016, 0.976, 10:41:50.463, 1583739710463
36, -25273.54, -30669.25, -19709.72, -15677.71, -18726.11, -20664.46, -23244.85, -21829.50, 0.000, 0.000, 0.000, 10:41:50.463, 1583739710463
37, -25827.53, -30724.21, -19822.26, -15780.87, -19343.80, -20712.36, -23511.73, -22112.87, 0.000, 0.000, 0.000, 10:41:50.463, 1583739710463
38, -26089.47, -30733.85, -19892.20, -15839.61, -19678.95, -20734.13, -23619.02, -22275.39, 0.000, 0.000, 0.000, 10:41:50.463, 1583739710463
39, -25690.24, -30679.80, -19819.89, -15768.19, -19267.96, -20698.56, -23402.81, -22084.44, 0.000, 0.000, 0.000, 10:41:50.463, 1583739710463
40, -25104.52, -30622.31, -19690.59, -15671.32, -18636.50, -20655.96, -23128.13, -21779.70, 0.000, 0.000, 0.000, 10:41:50.463, 1583739710463
41, -25271.17, -30662.75, -19702.19, -15667.12, -18718.18, -20654.40, -23233.99, -21819.35, 0.000, 0.000, 0.000, 10:41:50.463, 1583739710463
42, -25831.08, -30727.99, -19816.88, -15770.07, -19338.97, -20702.34, -23504.07, -22103.84, 0.000, 0.000, 0.000, 10:41:50.463, 1583739710463
43, -26102.50, -30742.90, -19888.22, -15830.67, -19682.21, -20728.63, -23618.10, -22271.26, 0.000, 0.000, 0.000, 10:41:50.463, 1583739710463
44, -25703.41, -30687.16, -19820.88, -15770.05, -19278.09, -20702.59, -23406.46, -22087.72, 0.000, 0.000, 0.000, 10:41:50.464, 1583739710464
45, -25118.93, -30615.21, -19703.02, -15687.97, -18657.36, -20670.65, -23138.35, -21791.97, 0.008, -0.016, 0.976, 10:41:50.464, 1583739710464
46, -25282.04, -30656.91, -19721.59, -15689.72, -18742.18, -20676.01, -23252.43, -21836.60, 0.000, 0.000, 0.000, 10:41:50.464, 1583739710464
47, -25835.42, -30742.39, -19833.95, -15792.87, -19358.71, -20726.82, -23522.97, -22120.94, 0.000, 0.000, 0.000, 10:41:50.464, 1583739710464
48, -26105.50, -30756.13, -19897.10, -15839.09, -19693.72, -20740.07, -23628.32, -22279.44, 0.000, 0.000, 0.000, 10:41:50.464, 1583739710464
49, -25710.03, -30703.56, -19826.76, -15772.64, -19288.50, -20709.05, -23418.12, -22094.07, 0.000, 0.000, 0.000, 10:41:50.464, 1583739710464
50, -25119.81, -30632.57, -19704.31, -15689.74, -18660.62, -20674.71, -23147.31, -21794.60, 0.000, 0.000, 0.000, 10:41:50.464, 1583739710464
51, -25275.06, -30668.36, -19720.09, -15689.14, -18735.59, -20677.51, -23256.52, -21835.22, 0.000, 0.000, 0.000, 10:41:50.464, 1583739710464
52, -25823.39, -30725.36, -19835.85, -15793.23, -19351.87, -20726.97, -23526.37, -22117.41, 0.000, 0.000, 0.000, 10:41:50.464, 1583739710464
53, -26098.52, -30740.49, -19904.36, -15849.44, -19693.92, -20745.66, -23636.39, -22279.57, 0.000, 0.000, 0.000, 10:41:50.464, 1583739710464
54, -25711.41, -30688.90, -19823.18, -15767.17, -19286.52, -20701.45, -23418.75, -22087.55, 0.000, 0.000, 0.000, 10:41:50.464, 1583739710464
55, -25122.76, -30627.37, -19695.84, -15671.86, -18653.04, -20659.43, -23142.06, -21782.09, 0.006, -0.016, 0.974, 10:41:50.465, 1583739710465
56, -25275.91, -30660.27, -19709.05, -15666.20, -18721.84, -20660.01, -23247.06, -21819.41, 0.000, 0.000, 0.000, 10:41:50.465, 1583739710465
57, -25821.63, -30705.95, -19814.87, -15765.74, -19330.44, -20707.35, -23508.36, -22099.66, 0.000, 0.000, 0.000, 10:41:50.465, 1583739710465
58, -26084.71, -30727.77, -19879.66, -15822.73, -19673.40, -20724.78, -23615.00, -22263.25, 0.000, 0.000, 0.000, 10:41:50.465, 1583739710465
59, -25703.48, -30687.67, -19808.38, -15758.67, -19272.99, -20690.36, -23404.20, -22079.70, 0.000, 0.000, 0.000, 10:41:50.465, 1583739710465
60, -25119.43, -30631.72, -19689.52, -15675.64, -18646.32, -20657.08, -23133.70, -21780.34, 0.000, 0.000, 0.000, 10:41:50.465, 1583739710465
61, -25270.28, -30671.26, -19711.09, -15673.98, -18722.25, -20662.49, -23241.72, -21822.63, 0.000, 0.000, 0.000, 10:41:50.465, 1583739710465
62, -25817.52, -30730.21, -19826.13, -15778.14, -19336.25, -20713.12, -23505.90, -22103.01, 0.000, 0.000, 0.000, 10:41:50.465, 1583739710465
63, -26079.10, -30746.97, -19887.62, -15840.03, -19678.16, -20736.43, -23613.88, -22267.16, 0.000, 0.000, 0.000, 10:41:50.465, 1583739710465
64, -25703.72, -30695.56, -19807.47, -15763.88, -19280.57, -20696.60, -23402.63, -22085.58, 0.000, 0.000, 0.000, 10:41:50.465, 1583739710465
65, -25129.78, -30620.41, -19689.94, -15670.20, -18654.90, -20658.29, -23132.98, -21786.98, 0.010, -0.020, 0.974, 10:41:50.465, 1583739710465
66, -25283.69, -30655.01, -19712.79, -15670.36, -18731.43, -20664.68, -23244.99, -21830.66, 0.000, 0.000, 0.000, 10:41:50.465, 1583739710465
67, -25818.90, -30726.70, -19820.14, -15769.47, -19333.90, -20712.27, -23503.44, -22102.59, 0.000, 0.000, 0.000, 10:41:50.465, 1583739710465
68, -26081.56, -30743.26, -19889.14, -15829.71, -19678.10, -20736.03, -23612.61, -22263.99, 0.000, 0.000, 0.000, 10:41:50.466, 1583739710466
69, -25711.14, -30688.32, -19823.87, -15770.63, -19296.15, -20705.02, -23413.50, -22091.93, 0.000, 0.000, 0.000, 10:41:50.466, 1583739710466
70, -25132.90, -30625.51, -19707.78, -15687.44, -18672.76, -20670.29, -23145.21, -21796.32, 0.000, 0.000, 0.000, 10:41:50.466, 1583739710466
71, -25283.35, -30668.34, -19726.22, -15685.83, -18741.91, -20674.29, -23252.14, -21835.22, 0.000, 0.000, 0.000, 10:41:50.466, 1583739710466
72, -25811.39, -30732.93, -19831.16, -15783.73, -19338.62, -20719.87, -23506.70, -22104.40, 0.000, 0.000, 0.000, 10:41:50.466, 1583739710466
73, -26072.50, -30749.36, -19888.49, -15833.26, -19673.83, -20732.67, -23609.63, -22257.13, 0.000, 0.000, 0.000, 10:41:50.466, 1583739710466
74, -25705.27, -30696.03, -19819.04, -15770.03, -19291.81, -20698.03, -23410.93, -22084.86, 0.000, 0.000, 0.000, 10:41:50.467, 1583739710467
75, -25124.30, -30632.19, -19698.77, -15675.26, -18665.40, -20656.39, -23142.53, -21786.47, 0.008, -0.020, 0.968, 10:41:50.467, 1583739710467
76, -25289.01, -30670.28, -19716.16, -15668.19, -18732.59, -20657.01, -23251.69, -21825.29, 0.000, 0.000, 0.000, 10:41:50.467, 1583739710467
77, -25814.28, -30721.27, -19822.22, -15771.95, -19327.24, -20705.22, -23502.90, -22092.98, 0.000, 0.000, 0.000, 10:41:50.467, 1583739710467
78, -26071.79, -30740.89, -19887.55, -15839.88, -19669.22, -20729.99, -23606.66, -22254.87, 0.000, 0.000, 0.000, 10:41:50.467, 1583739710467
79, -25714.50, -30695.27, -19819.38, -15767.10, -19291.83, -20693.67, -23411.80, -22086.70, 0.000, 0.000, 0.000, 10:41:50.468, 1583739710468
80, -25141.00, -30630.79, -19698.44, -15669.71, -18664.73, -20652.72, -23142.73, -21788.97, 0.000, 0.000, 0.000, 10:41:50.468, 1583739710468
81, -25288.58, -30668.58, -19712.38, -15669.78, -18725.04, -20657.66, -23248.63, -21826.79, 0.000, 0.000, 0.000, 10:41:50.468, 1583739710468
82, -25808.20, -30725.76, -19811.45, -15765.13, -19311.15, -20701.00, -23494.01, -22088.02, 0.000, 0.000, 0.000, 10:41:50.468, 1583739710468
83, -26061.73, -30742.95, -19875.84, -15825.50, -19651.70, -20721.47, -23598.17, -22244.28, 0.000, 0.000, 0.000, 10:41:50.469, 1583739710469
84, -25712.93, -30703.18, -19813.77, -15760.53, -19285.11, -20688.37, -23407.89, -22077.55, 0.000, 0.000, 0.000, 10:41:50.469, 1583739710469
85, -25140.66, -30645.96, -19698.61, -15668.93, -18665.29, -20651.83, -23141.59, -21783.58, 0.000, 0.000, 0.000, 10:41:50.469, 1583739710469
86, -25282.08, -30682.10, -19712.83, -15663.59, -18723.74, -20654.51, -23242.51, -21819.75, 0.006, -0.028, 0.962, 10:41:50.469, 1583739710469
87, -25803.23, -30728.57, -19815.69, -15768.82, -19313.67, -20706.43, -23491.39, -22085.96, 0.000, 0.000, 0.000, 10:41:50.469, 1583739710469
88, -26065.20, -30733.87, -19879.35, -15832.95, -19657.35, -20731.22, -23597.43, -22245.60, 0.000, 0.000, 0.000, 10:41:50.469, 1583739710469
89, -25716.84, -30696.50, -19820.72, -15769.45, -19296.55, -20700.73, -23412.76, -22085.47, 0.000, 0.000, 0.000, 10:41:50.470, 1583739710470
90, -25139.70, -30635.95, -19707.13, -15686.30, -18677.99, -20669.71, -23150.10, -21796.06, 0.000, 0.000, 0.000, 10:41:50.470, 1583739710470
91, -25284.25, -30655.86, -19720.92, -15681.02, -18733.29, -20672.05, -23252.77, -21830.75, 0.000, 0.000, 0.000, 10:41:50.470, 1583739710470
92, -25799.70, -30705.42, -19828.84, -15779.68, -19324.36, -20720.80, -23502.70, -22093.34, 0.000, 0.000, 0.000, 10:41:50.470, 1583739710470
93, -26055.25, -30726.09, -19892.13, -15838.40, -19669.74, -20740.96, -23605.92, -22249.17, 0.000, 0.000, 0.000, 10:41:50.470, 1583739710470
94, -25717.67, -30696.05, -19818.38, -15774.34, -19304.22, -20704.76, -23414.79, -22087.72, 0.000, 0.000, 0.000, 10:41:50.470, 1583739710470
95, -25141.91, -30644.58, -19706.71, -15690.77, -18682.82, -20669.93, -23149.52, -21797.46, 0.000, 0.000, 0.000, 10:41:50.470, 1583739710470
96, -25280.20, -30666.03, -19721.59, -15677.16, -18730.27, -20664.32, -23247.00, -21825.63, 0.004, -0.022, 0.966, 10:41:50.470, 1583739710470
97, -25786.22, -30705.28, -19818.78, -15768.28, -19307.86, -20707.55, -23489.13, -22081.20, 0.000, 0.000, 0.000, 10:41:50.471, 1583739710471
98, -26047.65, -30731.77, -19881.25, -15832.52, -19654.16, -20731.82, -23596.18, -22240.68, 0.000, 0.000, 0.000, 10:41:50.471, 1583739710471
99, -25725.67, -30699.76, -19818.93, -15770.29, -19301.42, -20697.47, -23413.76, -22085.04, 0.000, 0.000, 0.000, 10:41:50.471, 1583739710471
100, -25150.96, -30637.91, -19706.21, -15686.05, -18681.81, -20664.01, -23149.16, -21795.83, 0.000, 0.000, 0.000, 10:41:50.471, 1583739710471
101, -25285.77, -30672.63, -19722.31, -15673.29, -18731.23, -20662.02, -23248.25, -21824.82, 0.000, 0.000, 0.000, 10:41:50.471, 1583739710471
102, -25790.54, -30711.72, -19821.53, -15767.52, -19311.44, -20705.07, -23490.25, -22080.37, 0.000, 0.000, 0.000, 10:41:50.471, 1583739710471
103, -26045.84, -30721.02, -19880.22, -15827.76, -19651.74, -20724.83, -23592.82, -22236.56, 0.000, 0.000, 0.000, 10:41:50.471, 1583739710471
104, -25723.19, -30685.66, -19818.31, -15766.65, -19304.75, -20693.38, -23414.39, -22084.30, 0.000, 0.000, 0.000, 10:41:50.471, 1583739710471
105, -25148.44, -30621.24, -19705.45, -15684.55, -18686.68, -20662.00, -23150.39, -21796.79, 0.000, 0.000, 0.000, 10:41:50.935, 1583739710935
106, -25282.88, -30656.80, -19721.97, -15679.77, -18732.66, -20664.90, -23250.44, -21828.76, 0.006, -0.018, 0.966, 10:41:50.936, 1583739710936
107, -25789.49, -30719.10, -19814.33, -15769.02, -19303.77, -20705.52, -23489.94, -22080.48, 0.000, 0.000, 0.000, 10:41:50.936, 1583739710936
108, -26047.74, -30733.78, -19878.48, -15830.47, -19653.13, -20728.43, -23595.37, -22238.60, 0.000, 0.000, 0.000, 10:41:50.936, 1583739710936
109, -25725.34, -30690.02, -19826.27, -15770.85, -19312.06, -20698.92, -23422.55, -22089.87, 0.000, 0.000, 0.000, 10:41:50.936, 1583739710936
110, -25144.48, -30638.92, -19709.37, -15679.06, -18686.55, -20659.63, -23155.60, -21794.20, 0.000, 0.000, 0.000, 10:41:50.936, 1583739710936
111, -25273.94, -30669.92, -19718.28, -15665.35, -18723.81, -20656.83, -23250.13, -21820.04, 0.000, 0.000, 0.000, 10:41:50.937, 1583739710937
112, -25791.05, -30720.77, -19817.03, -15759.23, -19299.30, -20703.73, -23491.68, -22076.50, 0.000, 0.000, 0.000, 10:41:50.937, 1583739710937
113, -26049.28, -30734.23, -19879.37, -15821.30, -19649.39, -20726.46, -23596.42, -22237.66, 0.000, 0.000, 0.000, 10:41:50.937, 1583739710937
114, -25730.37, -30686.35, -19825.77, -15766.27, -19313.16, -20698.47, -23424.98, -22093.47, 0.000, 0.000, 0.000, 10:41:50.937, 1583739710937
115, -25157.69, -30628.68, -19709.21, -15682.21, -18688.83, -20665.93, -23158.69, -21802.49, 0.000, 0.000, 0.000, 10:41:50.938, 1583739710938
116, -25286.33, -30669.90, -19718.69, -15668.73, -18724.90, -20663.47, -23254.26, -21826.08, 0.002, -0.024, 0.972, 10:41:50.938, 1583739710938
117, -25790.09, -30715.41, -19816.63, -15763.05, -19296.80, -20706.72, -23493.11, -22077.91, 0.000, 0.000, 0.000, 10:41:50.938, 1583739710938
118, -26043.78, -30723.28, -19877.49, -15823.13, -19644.97, -20724.71, -23592.04, -22232.79, 0.000, 0.000, 0.000, 10:41:50.938, 1583739710938
119, -25727.46, -30677.37, -19822.33, -15765.18, -19313.56, -20694.14, -23420.49, -22089.00, 0.000, 0.000, 0.000, 10:41:50.938, 1583739710938
120, -25159.28, -30634.00, -19711.91, -15688.06, -18694.37, -20666.80, -23158.37, -21804.28, 0.000, 0.000, 0.000, 10:41:50.942, 1583739710942
121, -25285.63, -30687.74, -19727.13, -15681.47, -18728.93, -20668.95, -23255.02, -21831.78, 0.000, 0.000, 0.000, 10:41:50.942, 1583739710942
122, -25777.62, -30730.23, -19819.45, -15774.83, -19296.77, -20711.93, -23490.81, -22082.12, 0.000, 0.000, 0.000, 10:41:50.942, 1583739710942
123, -26047.27, -30745.99, -19879.57, -15838.18, -19645.93, -20734.73, -23595.57, -22240.01, 0.000, 0.000, 0.000, 10:41:50.943, 1583739710943
124, -25742.77, -30708.84, -19824.99, -15772.64, -19316.44, -20700.04, -23426.30, -22094.70, 0.000, 0.000, 0.000, 10:41:50.943, 1583739710943
125, -25166.59, -30641.94, -19709.14, -15690.66, -18692.41, -20666.82, -23158.33, -21804.77, 0.000, 0.000, 0.000, 10:41:50.944, 1583739710944
126, -25283.26, -30673.83, -19720.41, -15677.22, -18719.34, -20665.19, -23248.92, -21825.49, -0.002, -0.020, 0.972, 10:41:50.944, 1583739710944
127, -25781.13, -30727.26, -19822.53, -15774.18, -19293.29, -20712.71, -23489.18, -22077.29, 0.000, 0.000, 0.000, 10:41:50.944, 1583739710944
128, -26042.42, -30736.24, -19884.11, -15840.26, -19650.11, -20736.32, -23592.69, -22236.39, 0.000, 0.000, 0.000, 10:41:50.944, 1583739710944
129, -25737.79, -30687.85, -19821.59, -15769.98, -19321.43, -20696.46, -23421.45, -22089.54, 0.000, 0.000, 0.000, 10:41:50.944, 1583739710944
130, -25162.74, -30632.95, -19707.67, -15682.41, -18697.77, -20660.97, -23154.37, -21799.01, 0.000, 0.000, 0.000, 10:41:50.944, 1583739710944
131, -25279.84, -30670.46, -19722.13, -15674.56, -18723.74, -20663.23, -23247.11, -21822.66, 0.000, 0.000, 0.000, 10:41:50.945, 1583739710945
132, -25780.14, -30729.60, -19823.09, -15772.98, -19295.05, -20712.38, -23490.59, -22076.06, 0.000, 0.000, 0.000, 10:41:50.945, 1583739710945
133, -26044.90, -30744.26, -19886.93, -15839.03, -19652.46, -20736.18, -23597.76, -22235.04, 0.000, 0.000, 0.000, 10:41:50.945, 1583739710945
134, -25747.42, -30694.49, -19826.73, -15766.85, -19328.58, -20696.42, -23427.15, -22090.14, 0.000, 0.000, 0.000, 10:41:50.945, 1583739710945
135, -25164.35, -30637.09, -19707.60, -15673.62, -18701.26, -20654.33, -23155.94, -21794.00, 0.000, 0.000, 0.000, 10:41:50.945, 1583739710945
136, -25272.11, -30665.72, -19717.10, -15663.36, -18721.31, -20652.70, -23244.74, -21812.93, 0.000, -0.018, 0.970, 10:41:50.945, 1583739710945
137, -25771.25, -30712.79, -19813.95, -15757.44, -19288.86, -20698.65, -23482.23, -22062.76, 0.000, 0.000, 0.000, 10:41:50.946, 1583739710946
138, -26029.88, -30735.93, -19876.22, -15828.81, -19647.76, -20726.57, -23588.26, -22226.48, 0.000, 0.000, 0.000, 10:41:50.946, 1583739710946
139, -25742.12, -30689.30, -19825.97, -15772.78, -19331.44, -20698.16, -23425.07, -22092.91, 0.000, 0.000, 0.000, 10:41:50.946, 1583739710946
140, -25160.93, -30628.06, -19709.46, -15686.39, -18702.91, -20663.05, -23152.43, -21801.35, 0.000, 0.000, 0.000, 10:41:50.946, 1583739710946
141, -25271.53, -30661.72, -19719.31, -15676.55, -18718.96, -20664.34, -23237.74, -21821.40, 0.000, 0.000, 0.000, 10:41:50.946, 1583739710946
142, -25774.11, -30707.29, -19813.61, -15764.04, -19280.93, -20706.81, -23474.99, -22069.49, 0.000, 0.000, 0.000, 10:41:50.946, 1583739710946
143, -26033.28, -30717.53, -19874.97, -15821.41, -19639.56, -20726.82, -23579.95, -22226.93, 0.000, 0.000, 0.000, 10:41:50.947, 1583739710947
144, -25743.51, -30696.23, -19823.00, -15765.74, -19332.63, -20696.73, -23417.23, -22092.33, 0.000, 0.000, 0.000, 10:41:50.947, 1583739710947
145, -25162.79, -30638.74, -19706.91, -15680.35, -18706.31, -20663.54, -23147.67, -21801.94, 0.000, 0.000, 0.000, 10:41:50.947, 1583739710947
146, -25279.76, -30671.11, -19721.32, -15674.14, -18721.13, -20666.73, -23235.60, -21819.46, 0.000, -0.022, 0.972, 10:41:50.947, 1583739710947
147, -25777.28, -30723.34, -19819.07, -15765.71, -19284.46, -20709.67, -23474.72, -22065.91, 0.000, 0.000, 0.000, 10:41:50.947, 1583739710947
148, -26036.34, -30733.07, -19876.49, -15817.37, -19638.62, -20724.00, -23578.52, -22220.00, 0.000, 0.000, 0.000, 10:41:50.947, 1583739710947
149, -25745.83, -30700.95, -19821.44, -15758.99, -19329.95, -20690.38, -23418.17, -22086.85, 0.000, 0.000, 0.000, 10:41:50.947, 1583739710947
150, -25173.23, -30640.04, -19698.84, -15670.96, -18701.79, -20653.95, -23147.02, -21794.09, 0.000, 0.000, 0.000, 10:41:50.948, 1583739710948
151, -25273.29, -30662.21, -19706.24, -15655.03, -18708.03, -20650.44, -23231.20, -21804.91, 0.000, 0.000, 0.000, 10:41:50.948, 1583739710948
152, -25771.87, -30714.18, -19807.04, -15754.04, -19274.11, -20700.55, -23474.07, -22056.75, 0.000, 0.000, 0.000, 10:41:50.948, 1583739710948
153, -26031.60, -30715.59, -19870.16, -15818.17, -19636.70, -20723.91, -23579.44, -22217.10, 0.000, 0.000, 0.000, 10:41:50.948, 1583739710948
154, -25753.59, -30696.48, -19821.93, -15762.65, -19338.71, -20695.52, -23423.87, -22088.37, 0.000, 0.000, 0.000, 10:41:50.948, 1583739710948
155, -25176.65, -30648.13, -19710.01, -15677.78, -18713.04, -20660.63, -23155.76, -21797.62, 0.000, 0.000, 0.000, 10:41:50.948, 1583739710948
156, -25269.09, -30678.77, -19717.55, -15663.63, -18715.03, -20658.02, -23236.96, -21808.24, -0.002, -0.022, 0.976, 10:41:50.948, 1583739710948
157, -25767.09, -30723.16, -19810.42, -15755.57, -19270.87, -20701.87, -23472.15, -22053.95, 0.000, 0.000, 0.000, 10:41:50.949, 1583739710949
158, -26033.77, -30730.29, -19873.47, -15825.17, -19635.69, -20728.56, -23578.81, -22218.91, 0.000, 0.000, 0.000, 10:41:50.949, 1583739710949
159, -25755.33, -30693.06, -19826.80, -15768.71, -19341.63, -20697.51, -23426.42, -22093.47, 0.000, 0.000, 0.000, 10:41:50.949, 1583739710949
160, -25175.15, -30639.50, -19709.19, -15673.94, -18712.70, -20657.59, -23154.26, -21800.24, 0.000, 0.000, 0.000, 10:41:50.949, 1583739710949
161, -25265.23, -30673.68, -19713.03, -15657.02, -18708.14, -20654.89, -23232.25, -21809.00, 0.000, 0.000, 0.000, 10:41:50.949, 1583739710949
162, -25755.33, -30716.84, -19805.81, -15750.42, -19266.44, -20701.67, -23469.53, -22056.07, 0.000, 0.000, 0.000, 10:41:50.950, 1583739710950
163, -26021.95, -30724.64, -19863.23, -15813.28, -19627.94, -20722.17, -23572.42, -22214.71, 0.000, 0.000, 0.000, 10:41:50.950, 1583739710950
164, -25754.73, -30694.73, -19815.04, -15758.92, -19338.68, -20693.51, -23421.30, -22091.14, 0.000, 0.000, 0.000, 10:41:50.950, 1583739710950
165, -25176.94, -30630.47, -19700.76, -15674.54, -18712.95, -20660.77, -23152.81, -21801.58, 0.000, 0.000, 0.000, 10:41:50.950, 1583739710950
166, -25261.70, -30646.97, -19704.94, -15653.40, -18701.30, -20653.99, -23229.07, -21805.13, 0.004, -0.016, 0.966, 10:41:50.950, 1583739710950
167, -25754.39, -30697.50, -19800.16, -15744.64, -19257.57, -20697.18, -23465.73, -22048.97, 0.000, 0.000, 0.000, 10:41:50.950, 1583739710950
168, -26019.31, -30729.13, -19865.89, -15818.80, -19631.18, -20725.30, -23573.60, -22213.21, 0.000, 0.000, 0.000, 10:41:50.951, 1583739710951
169, -25752.03, -30700.43, -19822.40, -15767.34, -19346.98, -20696.64, -23422.15, -22091.81, 0.000, 0.000, 0.000, 10:41:50.951, 1583739710951
170, -25170.16, -30633.53, -19705.72, -15679.48, -18718.22, -20659.83, -23150.28, -21799.19, 0.000, 0.000, 0.000, 10:41:50.951, 1583739710951
171, -25263.86, -30662.64, -19707.24, -15658.54, -18706.64, -20653.77, -23227.91, -21802.00, 0.000, 0.000, 0.000, 10:41:50.951, 1583739710951
172, -25756.58, -30712.06, -19804.52, -15750.54, -19262.53, -20699.14, -23466.51, -22047.38, 0.000, 0.000, 0.000, 10:41:50.951, 1583739710951
173, -26021.43, -30720.06, -19870.14, -15826.22, -19638.78, -20730.19, -23578.68, -22216.87, 0.000, 0.000, 0.000, 10:41:50.952, 1583739710952
174, -25761.88, -30683.22, -19826.18, -15776.06, -19361.68, -20704.20, -23433.14, -22102.83, 0.000, 0.000, 0.000, 10:41:50.952, 1583739710952
175, -25177.43, -30627.28, -19706.88, -15684.08, -18726.00, -20663.61, -23156.09, -21804.66, 0.000, 0.000, 0.000, 10:41:50.952, 1583739710952
176, -25261.65, -30663.22, -19706.50, -15661.89, -18706.22, -20658.38, -23229.32, -21806.09, 0.000, 0.000, 0.000, 10:41:50.952, 1583739710952
177, -25756.79, -30701.88, -19800.09, -15748.35, -19259.65, -20701.60, -23465.69, -22046.49, 0.000, -0.018, 0.968, 10:41:50.952, 1583739710952
178, -26022.73, -30716.30, -19869.00, -15822.08, -19633.21, -20729.52, -23570.67, -22210.68, 0.000, 0.000, 0.000, 10:41:50.953, 1583739710953
179, -25764.79, -30686.11, -19825.39, -15771.14, -19354.53, -20698.99, -23425.70, -22092.15, 0.000, 0.000, 0.000, 10:41:50.953, 1583739710953
180, -25176.45, -30620.46, -19705.83, -15678.45, -18719.00, -20657.41, -23149.34, -21794.56, 0.000, 0.000, 0.000, 10:41:50.953, 1583739710953
181, -25249.58, -30650.41, -19703.35, -15655.47, -18693.86, -20650.24, -23217.07, -21792.82, 0.000, 0.000, 0.000, 10:41:50.953, 1583739710953
182, -25739.06, -30715.81, -19792.96, -15743.32, -19245.46, -20693.24, -23450.60, -22036.03, 0.000, 0.000, 0.000, 10:41:50.953, 1583739710953
183, -26017.12, -30727.81, -19857.20, -15819.65, -19624.21, -20721.43, -23559.12, -22203.06, 0.000, 0.000, 0.000, 10:41:50.954, 1583739710954
184, -25765.32, -30690.49, -19820.21, -15772.66, -19356.68, -20695.68, -23419.84, -22089.89, 0.000, 0.000, 0.000, 10:41:50.954, 1583739710954
185, -25180.63, -30628.59, -19707.35, -15685.56, -18728.26, -20659.36, -23150.75, -21798.11, 0.000, 0.000, 0.000, 10:41:50.954, 1583739710954
186, -25257.60, -30655.17, -19705.45, -15664.19, -18699.04, -20652.36, -23219.97, -21795.90, 0.000, 0.000, 0.000, 10:41:50.954, 1583739710954
187, -25747.87, -30696.79, -19790.79, -15744.72, -19244.38, -20691.23, -23452.81, -22035.85, -0.006, -0.016, 0.972, 10:41:50.954, 1583739710954
188, -26014.28, -30713.89, -19855.97, -15814.95, -19626.31, -20717.59, -23563.61, -22203.60, 0.000, 0.000, 0.000, 10:41:50.955, 1583739710955
189, -25765.28, -30683.38, -19809.54, -15748.86, -19351.40, -20681.00, -23419.35, -22085.51, 0.000, 0.000, 0.000, 10:41:50.955, 1583739710955
190, -25183.98, -30612.66, -19695.04, -15659.23, -18718.96, -20646.06, -23147.18, -21793.55, 0.000, 0.000, 0.000, 10:41:50.955, 1583739710955
191, -25249.85, -30644.82, -19698.90, -15643.25, -18689.46, -20644.94, -23217.20, -21791.99, 0.000, 0.000, 0.000, 10:41:50.955, 1583739710955
192, -25742.86, -30706.87, -19787.80, -15735.61, -19236.02, -20686.58, -23450.29, -22031.58, 0.000, 0.000, 0.000, 10:41:50.955, 1583739710955
193, -26014.63, -30733.74, -19848.08, -15813.66, -19619.04, -20715.80, -23559.97, -22200.06, 0.000, 0.000, 0.000, 10:41:50.956, 1583739710956
194, -25761.55, -30690.38, -19808.43, -15761.18, -19354.51, -20686.85, -23420.07, -22087.81, 0.000, 0.000, 0.000, 10:41:50.956, 1583739710956
195, -25171.39, -30626.58, -19697.27, -15673.89, -18725.04, -20652.68, -23145.77, -21796.95, 0.000, 0.000, 0.000, 10:41:50.956, 1583739710956
196, -25245.54, -30658.57, -19698.01, -15653.87, -18690.68, -20647.96, -23213.74, -21792.71, 0.000, 0.000, 0.000, 10:41:50.956, 1583739710956
197, -25737.45, -30698.42, -19779.66, -15729.28, -19232.69, -20680.41, -23443.27, -22024.96, -0.002, -0.018, 0.970, 10:41:50.956, 1583739710956
198, -26003.95, -30706.42, -19836.93, -15797.47, -19609.56, -20703.95, -23551.85, -22187.66, 0.000, 0.000, 0.000, 10:41:50.957, 1583739710957
199, -25764.56, -30667.44, -19796.83, -15747.41, -19349.28, -20674.65, -23413.32, -22076.66, 0.000, 0.000, 0.000, 10:41:50.957, 1583739710957
200, -25186.46, -30611.18, -19685.29, -15659.05, -18717.46, -20637.86, -23140.16, -21783.36, 0.000, 0.000, 0.000, 10:41:50.957, 1583739710957
201, -25245.24, -30643.68, -19691.80, -15643.07, -18677.61, -20635.93, -23207.21, -21778.35, 0.000, 0.000, 0.000, 10:41:50.957, 1583739710957
202, -25737.56, -30690.08, -19784.67, -15729.41, -19226.90, -20675.32, -23442.98, -22016.96, 0.000, 0.000, 0.000, 10:41:50.957, 1583739710957
203, -26010.48, -30705.19, -19845.80, -15800.72, -19612.78, -20701.74, -23552.97, -22184.02, 0.000, 0.000, 0.000, 10:41:50.957, 1583739710957
204, -25760.07, -30678.01, -19806.69, -15756.95, -19356.74, -20677.93, -23418.57, -22079.43, 0.000, 0.000, 0.000, 10:41:50.957, 1583739710957
205, -25187.67, -30623.45, -19697.38, -15666.69, -18726.43, -20643.56, -23147.24, -21788.79, 0.000, 0.000, 0.000, 10:41:50.958, 1583739710958
206, -25248.66, -30650.59, -19692.76, -15637.73, -18676.76, -20634.28, -23205.63, -21774.17, 0.000, 0.000, 0.000, 10:41:50.958, 1583739710958
207, -25735.48, -30698.02, -19776.64, -15717.61, -19219.68, -20672.50, -23438.98, -22011.97, 0.000, -0.018, 0.974, 10:41:50.958, 1583739710958
208, -26009.25, -30707.29, -19839.43, -15795.58, -19608.92, -20702.61, -23550.36, -22182.74, 0.000, 0.000, 0.000, 10:41:50.958, 1583739710958
209, -25772.03, -30682.44, -19804.38, -15750.25, -19359.81, -20675.72, -23419.46, -22080.26, 0.000, 0.000, 0.000, 10:41:50.958, 1583739710958
210, -25187.35, -30620.03, -19690.10, -15659.79, -18729.38, -20638.15, -23144.18, -21785.84, 0.000, 0.000, 0.000, 10:41:50.958, 1583739710958
211, -25241.62, -30644.58, -19688.36, -15637.93, -18677.97, -20634.26, -23205.00, -21773.48, 0.000, 0.000, 0.000, 10:41:50.958, 1583739710958
212, -25733.54, -30696.30, -19781.83, -15729.93, -19224.31, -20680.50, -23441.50, -22014.81, 0.000, 0.000, 0.000, 10:41:50.958, 1583739710958
213, -26006.79, -30696.14, -19841.22, -15803.71, -19613.34, -20706.68, -23551.27, -22183.48, 0.000, 0.000, 0.000, 10:41:50.959, 1583739710959
214, -25776.79, -30662.52, -19807.91, -15757.35, -19369.84, -20682.05, -23423.31, -22083.34, 0.000, 0.000, 0.000, 10:41:50.959, 1583739710959
215, -25193.37, -30621.15, -19695.46, -15667.77, -18736.53, -20646.66, -23148.83, -21792.21, 0.000, 0.000, 0.000, 10:41:50.959, 1583739710959
216, -25231.90, -30652.76, -19695.62, -15644.12, -18680.92, -20641.68, -23205.04, -21779.40, 0.000, 0.000, 0.000, 10:41:50.959, 1583739710959
217, -25729.58, -30704.34, -19793.34, -15736.16, -19229.92, -20688.01, -23442.15, -22021.77, -0.002, -0.016, 0.978, 10:41:50.959, 1583739710959
218, -26013.29, -30709.35, -19856.87, -15817.08, -19622.10, -20718.97, -23554.18, -22192.42, 0.000, 0.000, 0.000, 10:41:50.959, 1583739710959
219, -25789.53, -30684.61, -19813.26, -15769.47, -19372.28, -20691.52, -23422.50, -22091.61, 0.000, 0.000, 0.000, 10:41:50.959, 1583739710959
220, -25197.32, -30621.80, -19691.97, -15673.38, -18732.33, -20649.46, -23141.79, -21793.51, 0.000, 0.000, 0.000, 10:41:50.959, 1583739710959
221, -25237.18, -30652.80, -19688.62, -15643.05, -18669.45, -20641.08, -23196.19, -21775.13, 0.000, 0.000, 0.000, 10:41:50.960, 1583739710960
222, -25732.91, -30706.24, -19782.01, -15727.49, -19215.48, -20682.13, -23434.87, -22013.38, 0.000, 0.000, 0.000, 10:41:50.960, 1583739710960
223, -26011.66, -30712.23, -19853.09, -15813.32, -19616.81, -20716.98, -23554.60, -22188.80, 0.000, 0.000, 0.000, 10:41:50.960, 1583739710960
224, -25783.16, -30672.76, -19819.40, -15770.81, -19380.15, -20690.96, -23427.98, -22091.05, 0.000, 0.000, 0.000, 10:41:50.960, 1583739710960
225, -25195.38, -30605.84, -19698.64, -15675.86, -18741.09, -20650.91, -23149.34, -21794.40, 0.000, 0.000, 0.000, 10:41:51.415, 1583739711415
226, -25224.93, -30632.19, -19681.80, -15629.21, -18667.42, -20631.62, -23193.35, -21764.03, 0.000, 0.000, 0.000, 10:41:51.415, 1583739711415
227, -25718.01, -30694.78, -19773.67, -15715.82, -19209.11, -20672.03, -23428.70, -21999.53, 0.000, -0.018, 0.974, 10:41:51.415, 1583739711415
228, -25999.55, -30711.43, -19844.53, -15800.81, -19610.86, -20704.06, -23546.27, -22172.59, 0.000, 0.000, 0.000, 10:41:51.416, 1583739711416
229, -25773.33, -30674.28, -19804.31, -15748.88, -19373.24, -20675.01, -23417.59, -22074.56, 0.000, 0.000, 0.000, 10:41:51.416, 1583739711416
230, -25194.57, -30617.91, -19688.11, -15657.02, -18738.25, -20638.84, -23142.64, -21782.29, 0.000, 0.000, 0.000, 10:41:51.417, 1583739711417
231, -25231.86, -30648.42, -19686.19, -15633.14, -18670.77, -20633.59, -23196.17, -21763.60, 0.000, 0.000, 0.000, 10:41:51.417, 1583739711417
232, -25715.95, -30697.13, -19778.14, -15717.12, -19210.38, -20674.63, -23431.94, -22001.74, 0.000, 0.000, 0.000, 10:41:51.419, 1583739711419
233, -25998.70, -30704.01, -19847.14, -15802.64, -19613.25, -20710.14, -23551.07, -22180.08, 0.000, 0.000, 0.000, 10:41:51.419, 1583739711419
234, -25783.72, -30677.10, -19816.47, -15761.38, -19385.47, -20686.31, -23428.94, -22089.33, 0.000, 0.000, 0.000, 10:41:51.420, 1583739711420
235, -25193.39, -30619.12, -19699.64, -15671.50, -18748.66, -20646.35, -23149.75, -21792.62, 0.000, 0.000, 0.000, 10:41:51.420, 1583739711420
236, -25222.45, -30641.60, -19691.37, -15644.05, -18670.32, -20636.38, -23197.51, -21767.98, 0.000, 0.000, 0.000, 10:41:51.420, 1583739711420
237, -25709.89, -30695.22, -19780.98, -15726.89, -19207.10, -20677.06, -23433.17, -22003.75, -0.004, -0.024, 0.972, 10:41:51.423, 1583739711423
238, -25996.89, -30708.35, -19844.50, -15804.90, -19609.43, -20708.35, -23549.66, -22178.12, 0.000, 0.000, 0.000, 10:41:51.423, 1583739711423
239, -25790.92, -30684.23, -19810.78, -15760.57, -19386.47, -20684.28, -23430.08, -22088.46, 0.000, 0.000, 0.000, 10:41:51.424, 1583739711424
240, -25205.53, -30622.80, -19695.71, -15677.13, -18752.76, -20652.14, -23153.52, -21798.47, 0.000, 0.000, 0.000, 10:41:51.424, 1583739711424
241, -25224.52, -30643.26, -19685.18, -15645.08, -18666.79, -20641.43, -23194.87, -21770.31, 0.000, 0.000, 0.000, 10:41:51.424, 1583739711424
242, -25713.65, -30704.26, -19780.42, -15724.00, -19203.32, -20681.22, -23433.21, -22007.17, 0.000, 0.000, 0.000, 10:41:51.424, 1583739711424
243, -25994.81, -30714.18, -19842.27, -15801.05, -19605.74, -20711.13, -23548.05, -22180.73, 0.000, 0.000, 0.000, 10:41:51.425, 1583739711425
244, -25798.99, -30688.77, -19813.64, -15762.63, -19389.06, -20688.51, -23432.21, -22094.41, 0.000, 0.000, 0.000, 10:41:51.425, 1583739711425
245, -25210.55, -30621.75, -19703.20, -15677.33, -18758.81, -20653.88, -23155.98, -21801.94, 0.000, 0.000, 0.000, 10:41:51.425, 1583739711425
246, -25220.03, -30644.44, -19691.08, -15648.70, -18668.65, -20645.10, -23196.37, -21771.07, 0.000, 0.000, 0.000, 10:41:51.425, 1583739711425
247, -25706.18, -30693.64, -19780.31, -15728.07, -19203.90, -20684.39, -23431.53, -22005.76, 0.000, -0.026, 0.972, 10:41:51.425, 1583739711425
248, -25999.53, -30715.59, -19846.09, -15811.22, -19610.41, -20717.65, -23547.94, -22182.63, 0.000, 0.000, 0.000, 10:41:51.425, 1583739711425
249, -25800.08, -30687.36, -19813.03, -15769.31, -19393.18, -20692.60, -23430.97, -22095.84, 0.000, 0.000, 0.000, 10:41:51.426, 1583739711426
250, -25210.76, -30619.01, -19696.58, -15672.19, -18755.75, -20651.36, -23149.97, -21798.83, 0.000, 0.000, 0.000, 10:41:51.426, 1583739711426
251, -25221.35, -30651.86, -19685.90, -15635.36, -18661.92, -20639.29, -23189.02, -21765.37, 0.000, 0.000, 0.000, 10:41:51.426, 1583739711426
252, -25707.34, -30706.42, -19773.94, -15718.10, -19193.44, -20680.64, -23425.61, -21999.35, 0.000, 0.000, 0.000, 10:41:51.426, 1583739711426
253, -25995.17, -30711.65, -19845.02, -15802.08, -19602.46, -20712.69, -23545.24, -22175.93, 0.000, 0.000, 0.000, 10:41:51.426, 1583739711426
254, -25800.08, -30687.04, -19821.55, -15766.58, -19397.56, -20691.93, -23436.32, -22094.74, 0.000, 0.000, 0.000, 10:41:51.426, 1583739711426
255, -25208.83, -30618.83, -19701.81, -15674.14, -18760.58, -20653.30, -23155.76, -21800.13, 0.000, 0.000, 0.000, 10:41:51.427, 1583739711427
0, -25227.45, -30653.14, -19688.96, -15641.82, -18666.59, -20643.22, -23195.32, -21767.94, 0.000, 0.000, 0.000, 10:41:51.427, 1583739711427
1, -25709.27, -30708.19, -19777.45, -15724.18, -19195.54, -20682.09, -23430.97, -22002.63, 0.002, -0.028, 0.972, 10:41:51.427, 1583739711427
2, -25995.21, -30721.82, -19841.62, -15802.53, -19599.84, -20712.00, -23547.41, -22177.22, 0.000, 0.000, 0.000, 10:41:51.427, 1583739711427
3, -25808.62, -30697.97, -19812.83, -15764.46, -19394.59, -20690.25, -23433.63, -22095.19, 0.000, 0.000, 0.000, 10:41:51.427, 1583739711427
4, -25215.34, -30624.37, -19694.81, -15672.57, -18757.38, -20648.92, -23149.95, -21797.89, 0.000, 0.000, 0.000, 10:41:51.427, 1583739711427
5, -25222.09, -30650.32, -19683.62, -15638.26, -18655.01, -20638.08, -23186.00, -21760.70, 0.000, 0.000, 0.000, 10:41:51.427, 1583739711427
6, -25712.64, -30719.83, -19781.09, -15728.83, -19188.32, -20685.78, -23426.84, -21999.48, 0.000, 0.000, 0.000, 10:41:51.428, 1583739711428
7, -26004.11, -30729.42, -19852.64, -15820.45, -19606.08, -20725.95, -23551.67, -22184.60, 0.000, 0.000, 0.000, 10:41:51.428, 1583739711428
8, -25812.84, -30701.48, -19823.92, -15774.45, -19405.58, -20701.56, -23442.78, -22104.56, 0.000, 0.000, 0.000, 10:41:51.428, 1583739711428
9, -25215.87, -30625.44, -19702.44, -15673.80, -18766.50, -20658.11, -23157.21, -21804.30, 0.000, 0.000, 0.000, 10:41:51.428, 1583739711428
10, -25210.89, -30645.60, -19689.14, -15646.76, -18662.99, -20652.23, -23190.85, -21769.91, 0.000, 0.000, 0.000, 10:41:51.428, 1583739711428
11, -25694.87, -30700.34, -19777.36, -15723.18, -19188.84, -20690.92, -23428.16, -22002.92, 0.000, 0.000, 0.000, 10:41:51.428, 1583739711428
12, -25995.57, -30701.04, -19841.33, -15799.75, -19601.38, -20718.68, -23546.18, -22178.45, 0.002, -0.028, 0.974, 10:41:51.428, 1583739711428
13, -25812.53, -30692.48, -19816.32, -15766.27, -19408.24, -20697.27, -23438.64, -22103.57, 0.000, 0.000, 0.000, 10:41:51.428, 1583739711428
14, -25218.40, -30638.88, -19704.87, -15681.27, -18774.08, -20661.77, -23159.94, -21811.28, 0.000, 0.000, 0.000, 10:41:51.429, 1583739711429
15, -25214.87, -30657.18, -19691.80, -15649.17, -18662.34, -20649.97, -23189.96, -21768.65, 0.000, 0.000, 0.000, 10:41:51.429, 1583739711429
16, -25708.64, -30715.27, -19778.52, -15725.44, -19186.24, -20688.01, -23424.76, -22000.02, 0.000, 0.000, 0.000, 10:41:51.429, 1583739711429
17, -26001.87, -30723.39, -19845.31, -15803.73, -19603.73, -20717.63, -23542.29, -22176.10, 0.000, 0.000, 0.000, 10:41:51.429, 1583739711429
18, -25817.90, -30697.04, -19821.17, -15768.91, -19411.97, -20698.63, -23437.48, -22102.63, 0.000, 0.000, 0.000, 10:41:51.429, 1583739711429
19, -25230.67, -30637.45, -19705.50, -15681.96, -18775.51, -20663.34, -23157.52, -21809.65, 0.000, 0.000, 0.000, 10:41:51.429, 1583739711429
20, -25213.19, -30648.09, -19686.01, -15640.32, -18656.06, -20645.21, -23181.31, -21759.96, 0.000, 0.000, 0.000, 10:41:51.429, 1583739711429
21, -25696.48, -30702.00, -19771.66, -15711.35, -19177.28, -20678.56, -23416.85, -21987.90, 0.000, 0.000, 0.000, 10:41:51.429, 1583739711429
22, -25990.85, -30711.65, -19839.14, -15797.45, -19595.30, -20711.77, -23536.50, -22167.65, 0.004, -0.022, 0.972, 10:41:51.430, 1583739711430
23, -25813.09, -30683.85, -19813.84, -15757.91, -19409.29, -20687.86, -23431.53, -22093.36, 0.000, 0.000, 0.000, 10:41:51.430, 1583739711430
24, -25220.39, -30619.70, -19692.87, -15661.02, -18769.27, -20645.43, -23149.10, -21796.48, 0.000, 0.000, 0.000, 10:41:51.430, 1583739711430
25, -25217.95, -30641.58, -19688.29, -15639.85, -18656.78, -20642.53, -23183.34, -21758.66, 0.000, 0.000, 0.000, 10:41:51.430, 1583739711430
26, -25699.70, -30709.06, -19780.31, -15725.32, -19182.36, -20683.72, -23422.30, -21993.22, 0.000, 0.000, 0.000, 10:41:51.430, 1583739711430
27, -25995.68, -30728.15, -19845.26, -15811.04, -19603.04, -20719.31, -23545.06, -22176.10, 0.000, 0.000, 0.000, 10:41:51.430, 1583739711430
28, -25822.68, -30694.76, -19814.96, -15768.40, -19417.65, -20695.01, -23441.21, -22102.68, 0.000, 0.000, 0.000, 10:41:51.430, 1583739711430
29, -25228.21, -30622.67, -19699.98, -15667.19, -18780.23, -20650.11, -23157.23, -21803.21, 0.000, 0.000, 0.000, 10:41:51.430, 1583739711430
30, -25201.32, -30637.96, -19686.46, -15633.01, -18656.89, -20639.73, -23180.35, -21753.86, 0.000, 0.000, 0.000, 10:41:51.430, 1583739711430
31, -25686.80, -30690.49, -19778.25, -15717.46, -19179.94, -20683.92, -23420.43, -21988.13, 0.000, 0.000, 0.000, 10:41:51.431, 1583739711431
32, -25988.93, -30715.79, -19852.13, -15810.17, -19607.11, -20723.96, -23549.37, -22175.39, 0.002, -0.020, 0.970, 10:41:51.431, 1583739711431
33, -25817.13, -30691.45, -19827.65, -15774.61, -19428.07, -20700.71, -23447.96, -22103.64, 0.000, 0.000, 0.000, 10:41:51.431, 1583739711431
34, -25231.47, -30628.10, -19712.36, -15685.09, -18793.10, -20664.05, -23167.69, -21811.88, 0.000, 0.000, 0.000, 10:41:51.431, 1583739711431
35, -25197.03, -30642.72, -19696.94, -15650.76, -18663.26, -20652.59, -23188.23, -21762.02, 0.000, 0.000, 0.000, 10:41:51.431, 1583739711431
36, -25685.64, -30690.93, -19781.16, -15722.80, -19177.46, -20685.91, -23421.70, -21988.95, 0.000, 0.000, 0.000, 10:41:51.431, 1583739711431
37, -25991.52, -30718.45, -19843.86, -15803.73, -19599.51, -20717.07, -23544.21, -22170.07, 0.000, 0.000, 0.000, 10:41:51.431, 1583739711431
38, -25823.33, -30697.13, -19821.91, -15770.18, -19426.10, -20697.20, -23446.40, -22102.23, 0.000, 0.000, 0.000, 10:41:51.431, 1583739711431
39, -25229.46, -30624.04, -19709.79, -15687.15, -18795.27, -20663.05, -23166.93, -21810.63, 0.000, 0.000, 0.000, 10:41:51.432, 1583739711432
40, -25199.11, -30644.96, -19693.99, -15652.50, -18663.06, -20650.40, -23186.38, -21758.75, 0.000, 0.000, 0.000, 10:41:51.432, 1583739711432
41, -25680.75, -30697.59, -19778.70, -15717.52, -19176.01, -20680.59, -23418.32, -21981.62, 0.000, 0.000, 0.000, 10:41:51.432, 1583739711432
42, -25980.79, -30710.40, -19841.26, -15801.25, -19599.60, -20712.06, -23539.74, -22162.78, -0.004, -0.020, 0.966, 10:41:51.432, 1583739711432
43, -25817.27, -30682.62, -19807.53, -15751.36, -19421.52, -20679.48, -23436.27, -22090.79, 0.000, 0.000, 0.000, 10:41:51.432, 1583739711432
44, -25229.31, -30622.92, -19686.52, -15655.29, -18780.25, -20637.72, -23150.51, -21793.96, 0.000, 0.000, 0.000, 10:41:51.432, 1583739711432
45, -25191.09, -30642.43, -19674.21, -15627.58, -18643.08, -20630.75, -23168.99, -21741.18, 0.000, 0.000, 0.000, 10:41:51.433, 1583739711433
46, -25675.52, -30686.87, -19771.06, -15714.71, -19164.27, -20677.02, -23412.15, -21975.36, 0.000, 0.000, 0.000, 10:41:51.433, 1583739711433
47, -25980.82, -30697.19, -19840.66, -15806.91, -19595.33, -20717.07, -23541.46, -22164.08, 0.000, 0.000, 0.000, 10:41:51.433, 1583739711433
48, -25824.91, -30687.47, -19816.10, -15771.66, -19428.78, -20697.83, -23446.04, -22103.24, 0.000, 0.000, 0.000, 10:41:51.436, 1583739711436
49, -25228.57, -30627.77, -19704.00, -15680.80, -18793.41, -20662.11, -23163.74, -21811.44, 0.000, 0.000, 0.000, 10:41:51.436, 1583739711436
50, -25183.22, -30646.32, -19683.28, -15636.77, -18646.43, -20645.10, -23174.94, -21750.33, 0.000, 0.000, 0.000, 10:41:51.436, 1583739711436
51, -25674.04, -30689.82, -19765.24, -15706.93, -19156.70, -20678.96, -23407.89, -21975.21, 0.000, 0.000, 0.000, 10:41:51.437, 1583739711437
52, -25989.45, -30710.31, -19838.47, -15798.30, -19591.66, -20717.88, -23536.74, -22163.12, 0.002, -0.016, 0.970, 10:41:51.437, 1583739711437
53, -25839.20, -30695.25, -19825.33, -15773.71, -19436.61, -20703.91, -23449.06, -22106.54, 0.000, 0.000, 0.000, 10:41:51.437, 1583739711437
54, -25242.94, -30624.62, -19710.79, -15678.63, -18801.95, -20663.36, -23165.66, -21809.47, 0.000, 0.000, 0.000, 10:41:51.437, 1583739711437
55, -25190.57, -30638.23, -19690.77, -15640.81, -18655.39, -20650.80, -23179.63, -21749.12, 0.000, 0.000, 0.000, 10:41:51.437, 1583739711437
56, -25671.20, -30689.08, -19781.61, -15720.47, -19168.70, -20689.02, -23420.58, -21978.74, 0.000, 0.000, 0.000, 10:41:51.437, 1583739711437
57, -25978.89, -30700.75, -19851.50, -15808.58, -19603.78, -20723.17, -23548.93, -22164.08, 0.000, 0.000, 0.000, 10:41:51.438, 1583739711438
58, -25835.98, -30687.60, -19824.12, -15772.44, -19443.54, -20699.03, -23453.77, -22103.21, 0.000, 0.000, 0.000, 10:41:51.438, 1583739711438
59, -25248.62, -30632.19, -19705.39, -15676.33, -18802.71, -20656.07, -23166.96, -21807.54, 0.000, 0.000, 0.000, 10:41:51.438, 1583739711438
60, -25188.85, -30643.84, -19686.66, -15636.97, -18646.34, -20642.51, -23175.83, -21744.34, 0.000, 0.000, 0.000, 10:41:51.438, 1583739711438
61, -25676.28, -30702.56, -19773.83, -15712.96, -19159.27, -20681.08, -23415.37, -21974.13, 0.000, 0.000, 0.000, 10:41:51.438, 1583739711438
62, -25985.96, -30722.38, -19834.18, -15797.85, -19590.97, -20713.12, -23537.64, -22160.55, 0.004, -0.018, 0.966, 10:41:51.438, 1583739711438
63, -25835.62, -30702.11, -19817.75, -15767.41, -19437.23, -20693.02, -23447.40, -22102.61, 0.000, 0.000, 0.000, 10:41:51.438, 1583739711438
64, -25251.48, -30630.88, -19704.92, -15675.59, -18802.24, -20655.18, -23164.81, -21809.31, 0.000, 0.000, 0.000, 10:41:51.438, 1583739711438
65, -25195.82, -30650.21, -19681.00, -15636.16, -18640.71, -20642.64, -23169.95, -21746.15, 0.000, 0.000, 0.000, 10:41:51.439, 1583739711439
66, -25681.44, -30714.18, -19768.04, -15713.97, -19149.50, -20683.32, -23410.14, -21975.83, 0.000, 0.000, 0.000, 10:41:51.439, 1583739711439
67, -25991.77, -30714.07, -19837.55, -15804.67, -19588.73, -20719.31, -23540.43, -22164.95, 0.000, 0.000, 0.000, 10:41:51.439, 1583739711439
68, -25846.91, -30690.75, -19819.25, -15772.08, -19441.32, -20695.64, -23451.58, -22106.41, 0.000, 0.000, 0.000, 10:41:51.439, 1583739711439
69, -25256.26, -30637.22, -19708.36, -15683.93, -18807.74, -20659.20, -23169.73, -21814.32, 0.000, 0.000, 0.000, 10:41:51.439, 1583739711439
70, -25190.04, -30647.32, -19684.24, -15643.47, -18643.32, -20645.14, -23172.50, -21748.16, 0.000, 0.000, 0.000, 10:41:51.439, 1583739711439
71, -25669.08, -30694.69, -19766.54, -15714.86, -19146.35, -20681.87, -23407.93, -21974.40, 0.000, 0.000, 0.000, 10:41:51.439, 1583739711439
72, -25978.58, -30713.44, -19841.44, -15808.63, -19591.17, -20722.55, -23542.00, -22165.91, 0.006, -0.016, 0.970, 10:41:51.439, 1583739711439
73, -25846.62, -30697.01, -19831.14, -15789.83, -19454.78, -20710.59, -23460.44, -22118.28, 0.000, 0.000, 0.000, 10:41:51.440, 1583739711440
74, -25258.41, -30629.64, -19720.47, -15706.30, -18823.43, -20678.69, -23179.79, -21829.74, 0.000, 0.000, 0.000, 10:41:51.440, 1583739711440
75, -25174.66, -30644.73, -19691.15, -15655.94, -18648.10, -20656.25, -23175.76, -21753.43, 0.000, 0.000, 0.000, 10:41:51.440, 1583739711440
76, -25662.35, -30693.46, -19768.42, -15717.72, -19147.29, -20684.77, -23406.95, -21973.33, 0.000, 0.000, 0.000, 10:41:51.440, 1583739711440
77, -25981.04, -30704.54, -19827.94, -15795.04, -19583.12, -20713.72, -23531.94, -22157.39, 0.000, 0.000, 0.000, 10:41:51.440, 1583739711440
78, -25847.04, -30695.92, -19808.88, -15751.32, -19439.51, -20685.20, -23444.68, -22098.70, 0.000, 0.000, 0.000, 10:41:51.440, 1583739711440
79, -25259.53, -30628.28, -19698.08, -15659.81, -18805.24, -20645.46, -23161.53, -21803.88, 0.000, 0.000, 0.000, 10:41:51.441, 1583739711441
80, -25185.25, -30639.28, -19673.94, -15622.84, -18632.99, -20633.63, -23161.44, -21733.25, 0.000, 0.000, 0.000, 10:41:51.441, 1583739711441
81, -25662.39, -30698.53, -19765.80, -15702.90, -19141.68, -20675.36, -23402.14, -21962.73, 0.000, 0.000, 0.000, 10:41:51.441, 1583739711441
82, -25977.71, -30715.97, -19840.41, -15800.83, -19591.75, -20718.97, -23538.82, -22159.12, 0.008, -0.014, 0.970, 10:41:51.441, 1583739711441
83, -25854.33, -30699.20, -19822.11, -15771.99, -19456.66, -20701.56, -23456.43, -22110.14, 0.000, 0.000, 0.000, 10:41:51.441, 1583739711441
84, -25262.88, -30628.17, -19700.60, -15673.29, -18816.28, -20656.86, -23167.45, -21811.32, 0.000, 0.000, 0.000, 10:41:51.441, 1583739711441
85, -25181.41, -30634.03, -19673.80, -15635.65, -18636.12, -20642.86, -23163.25, -21737.27, 0.000, 0.000, 0.000, 10:41:51.441, 1583739711441
86, -25661.12, -30694.55, -19763.30, -15707.17, -19140.74, -20678.47, -23402.74, -21961.46, 0.000, 0.000, 0.000, 10:41:51.442, 1583739711442
87, -25972.41, -30694.80, -19837.75, -15798.48, -19590.83, -20716.42, -23537.39, -22153.26, 0.000, 0.000, 0.000, 10:41:51.442, 1583739711442
88, -25841.03, -30684.18, -19821.44, -15768.60, -19457.91, -20695.35, -23454.82, -22103.82, 0.000, 0.000, 0.000, 10:41:51.442, 1583739711442
89, -25261.74, -30640.93, -19705.28, -15678.79, -18823.16, -20657.50, -23170.44, -21811.75, 0.000, 0.000, 0.000, 10:41:51.442, 1583739711442
90, -25185.19, -30655.10, -19685.98, -15651.00, -18647.05, -20653.32, -23170.38, -21744.80, 0.000, 0.000, 0.000, 10:41:51.895, 1583739711895
91, -25667.24, -30713.11, -19779.04, -15736.57, -19150.82, -20699.19, -23412.27, -21977.87, 0.000, 0.000, 0.000, 10:41:51.895, 1583739711895
92, -25983.19, -30718.13, -19845.93, -15813.97, -19594.61, -20726.53, -23539.54, -22163.18, 0.006, -0.012, 0.970, 10:41:51.895, 1583739711895
93, -25852.23, -30690.75, -19828.79, -15778.07, -19464.55, -20701.43, -23457.35, -22112.56, 0.000, 0.000, 0.000, 10:41:51.896, 1583739711896
94, -25261.29, -30631.81, -19705.72, -15681.47, -18826.07, -20659.43, -23167.74, -21817.67, 0.000, 0.000, 0.000, 10:41:51.896, 1583739711896
95, -25170.88, -30638.76, -19669.78, -15628.81, -18630.07, -20637.61, -23153.50, -21732.47, 0.000, 0.000, 0.000, 10:41:51.896, 1583739711896
96, -25648.07, -30693.48, -19755.61, -15698.23, -19125.54, -20670.31, -23390.43, -21952.09, 0.000, 0.000, 0.000, 10:41:51.896, 1583739711896
97, -25970.24, -30706.45, -19825.26, -15789.07, -19573.22, -20706.81, -23522.24, -22143.31, 0.000, 0.000, 0.000, 10:41:51.897, 1583739711897
98, -25854.29, -30684.27, -19816.30, -15766.90, -19453.64, -20691.52, -23448.10, -22101.49, 0.000, 0.000, 0.000, 10:41:51.897, 1583739711897
99, -25264.56, -30610.87, -19698.97, -15670.67, -18817.42, -20648.90, -23162.26, -21805.73, 0.000, 0.000, 0.000, 10:41:51.901, 1583739711901
100, -25165.98, -30630.09, -19668.89, -15626.64, -18619.27, -20631.84, -23148.56, -21720.69, 0.000, 0.000, 0.000, 10:41:51.901, 1583739711901
101, -25638.57, -30695.56, -19757.94, -15701.54, -19116.91, -20671.32, -23389.11, -21945.86, 0.000, 0.000, 0.000, 10:41:51.902, 1583739711902
102, -25966.94, -30712.28, -19831.16, -15799.73, -19572.80, -20712.94, -23526.98, -22142.33, 0.000, 0.000, 0.000, 10:41:51.902, 1583739711902
103, -25868.16, -30689.50, -19821.62, -15780.73, -19459.96, -20701.00, -23455.67, -22106.46, 0.006, -0.024, 0.974, 10:41:51.902, 1583739711902
104, -25281.37, -30623.59, -19704.00, -15682.83, -18826.81, -20660.25, -23170.00, -21814.59, 0.000, 0.000, 0.000, 10:41:51.902, 1583739711902
105, -25170.86, -30637.78, -19671.05, -15628.23, -18627.23, -20638.46, -23153.99, -21726.83, 0.000, 0.000, 0.000, 10:41:51.902, 1583739711902
106, -25645.52, -30693.66, -19761.87, -15701.85, -19123.26, -20675.23, -23392.49, -21949.10, 0.000, 0.000, 0.000, 10:41:51.902, 1583739711902
107, -25974.54, -30703.67, -19837.31, -15805.28, -19581.80, -20720.76, -23531.33, -22149.55, 0.000, 0.000, 0.000, 10:41:51.903, 1583739711903
108, -25866.02, -30686.08, -19825.13, -15781.20, -19470.58, -20705.87, -23462.40, -22111.96, 0.000, 0.000, 0.000, 10:41:51.903, 1583739711903
109, -25276.63, -30632.95, -19713.70, -15690.57, -18842.07, -20668.70, -23181.53, -21821.13, 0.000, 0.000, 0.000, 10:41:51.903, 1583739711903
110, -25168.31, -30637.38, -19679.82, -15636.54, -18634.02, -20646.84, -23161.95, -21730.34, 0.000, 0.000, 0.000, 10:41:51.903, 1583739711903
111, -25642.05, -30697.30, -19764.02, -15698.52, -19120.60, -20677.78, -23395.73, -21948.43, 0.000, 0.000, 0.000, 10:41:51.903, 1583739711903
112, -25966.51, -30705.66, -19835.41, -15796.02, -19577.45, -20716.13, -23530.33, -22143.69, 0.000, 0.000, 0.000, 10:41:51.903, 1583739711903
113, -25866.87, -30682.26, -19824.92, -15777.67, -19469.67, -20701.98, -23459.29, -22106.88, 0.010, -0.020, 0.970, 10:41:51.903, 1583739711903
114, -25276.42, -30623.70, -19711.38, -15686.25, -18838.18, -20662.06, -23174.51, -21814.23, 0.000, 0.000, 0.000, 10:41:51.904, 1583739711904
115, -25161.89, -30634.23, -19678.05, -15637.15, -18629.31, -20641.34, -23153.28, -21724.35, 0.000, 0.000, 0.000, 10:41:51.904, 1583739711904
116, -25636.22, -30676.63, -19760.17, -15703.53, -19116.11, -20673.93, -23387.79, -21942.21, 0.000, 0.000, 0.000, 10:41:51.904, 1583739711904
117, -25966.63, -30695.78, -19833.15, -15800.83, -19576.24, -20715.71, -23524.47, -22141.68, 0.000, 0.000, 0.000, 10:41:51.904, 1583739711904
118, -25867.45, -30689.90, -19828.97, -15786.75, -19476.53, -20705.52, -23458.13, -22110.50, 0.000, 0.000, 0.000, 10:41:51.904, 1583739711904
119, -25279.71, -30629.20, -19722.37, -15701.47, -18848.20, -20671.83, -23179.12, -21821.94, 0.000, 0.000, 0.000, 10:41:51.904, 1583739711904
120, -25163.01, -30635.17, -19689.12, -15657.44, -18632.50, -20656.03, -23158.13, -21731.51, 0.000, 0.000, 0.000, 10:41:51.904, 1583739711904
121, -25641.70, -30685.61, -19764.57, -15713.68, -19114.34, -20682.67, -23389.89, -21945.86, 0.000, 0.000, 0.000, 10:41:51.904, 1583739711904
122, -25968.79, -30695.34, -19829.64, -15794.37, -19569.69, -20711.97, -23523.13, -22136.56, 0.000, 0.000, 0.000, 10:41:51.905, 1583739711905
123, -25862.58, -30684.12, -19819.38, -15773.31, -19469.35, -20695.35, -23455.47, -22101.90, 0.010, -0.018, 0.968, 10:41:51.905, 1583739711905
124, -25283.94, -30619.63, -19712.03, -15694.92, -18846.14, -20664.61, -23174.51, -21815.91, 0.000, 0.000, 0.000, 10:41:51.905, 1583739711905
125, -25163.75, -30625.96, -19683.01, -15653.80, -18628.70, -20652.63, -23152.70, -21726.79, 0.000, 0.000, 0.000, 10:41:51.905, 1583739711905
126, -25637.79, -30682.82, -19766.16, -15706.06, -19109.98, -20678.45, -23389.58, -21940.23, 0.000, 0.000, 0.000, 10:41:51.905, 1583739711905
127, -25968.23, -30700.57, -19837.22, -15794.48, -19571.50, -20715.46, -23528.47, -22137.35, 0.000, 0.000, 0.000, 10:41:51.905, 1583739711905
128, -25867.99, -30681.37, -19825.75, -15774.77, -19470.47, -20699.48, -23459.94, -22105.38, 0.000, 0.000, 0.000, 10:41:51.905, 1583739711905
129, -25282.66, -30607.63, -19718.11, -15689.87, -18846.77, -20666.00, -23180.48, -21820.53, 0.000, 0.000, 0.000, 10:41:51.905, 1583739711905
130, -25157.49, -30629.91, -19684.78, -15645.62, -18625.89, -20650.87, -23155.27, -21727.21, 0.000, 0.000, 0.000, 10:41:51.905, 1583739711905
131, -25632.69, -30697.39, -19767.75, -15713.37, -19110.38, -20685.29, -23392.69, -21946.73, 0.000, 0.000, 0.000, 10:41:51.906, 1583739711906
132, -25969.24, -30708.08, -19833.62, -15803.96, -19572.15, -20721.50, -23527.49, -22143.40, 0.000, 0.000, 0.000, 10:41:51.906, 1583739711906
133, -25872.23, -30676.56, -19822.78, -15779.93, -19478.27, -20701.69, -23460.64, -22110.37, 0.004, -0.016, 0.966, 10:41:51.906, 1583739711906
134, -25274.88, -30609.01, -19708.63, -15685.58, -18846.32, -20660.37, -23174.89, -21818.48, 0.000, 0.000, 0.000, 10:41:51.906, 1583739711906
135, -25151.79, -30621.78, -19676.15, -15641.62, -18621.08, -20645.90, -23148.72, -21723.50, 0.000, 0.000, 0.000, 10:41:51.906, 1583739711906
136, -25632.06, -30673.43, -19763.28, -15705.32, -19105.33, -20680.57, -23390.03, -21941.84, 0.000, 0.000, 0.000, 10:41:51.906, 1583739711906
137, -25966.45, -30700.63, -19841.38, -15802.91, -19580.33, -20725.03, -23535.98, -22144.65, 0.000, 0.000, 0.000, 10:41:51.907, 1583739711907
138, -25874.33, -30693.57, -19832.28, -15783.62, -19490.92, -20708.96, -23470.87, -22115.87, 0.000, 0.000, 0.000, 10:41:51.907, 1583739711907
139, -25291.24, -30623.07, -19717.61, -15694.79, -18859.11, -20668.68, -23184.01, -21825.00, 0.000, 0.000, 0.000, 10:41:51.907, 1583739711907
140, -25152.39, -30617.73, -19682.23, -15648.50, -18625.15, -20647.71, -23148.49, -21720.87, 0.000, 0.000, 0.000, 10:41:51.907, 1583739711907
141, -25627.10, -30685.50, -19765.94, -15712.83, -19105.85, -20679.90, -23386.23, -21936.40, 0.000, 0.000, 0.000, 10:41:51.907, 1583739711907
142, -25964.37, -30703.34, -19837.44, -15804.87, -19574.81, -20720.74, -23527.69, -22138.22, 0.000, 0.000, 0.000, 10:41:51.908, 1583739711908
143, -25877.55, -30685.52, -19828.77, -15785.07, -19489.25, -20706.37, -23463.77, -22113.16, 0.008, -0.018, 0.968, 10:41:51.908, 1583739711908
144, -25289.99, -30615.36, -19713.57, -15688.73, -18857.92, -20663.67, -23175.54, -21819.37, 0.000, 0.000, 0.000, 10:41:51.908, 1583739711908
145, -25150.94, -30618.18, -19669.45, -15633.06, -18612.77, -20640.18, -23137.07, -21711.52, 0.000, 0.000, 0.000, 10:41:51.908, 1583739711908
146, -25625.65, -30674.39, -19754.67, -15698.70, -19091.00, -20675.12, -23375.39, -21928.71, 0.000, 0.000, 0.000, 10:41:51.908, 1583739711908
147, -25963.85, -30698.18, -19828.77, -15794.39, -19564.64, -20715.60, -23518.59, -22131.18, 0.000, 0.000, 0.000, 10:41:51.908, 1583739711908
148, -25873.80, -30689.68, -19821.55, -15775.32, -19484.78, -20698.18, -23459.27, -22105.92, 0.000, 0.000, 0.000, 10:41:51.910, 1583739711910
149, -25291.69, -30624.39, -19714.77, -15693.87, -18862.84, -20665.39, -23179.12, -21822.34, 0.000, 0.000, 0.000, 10:41:51.910, 1583739711910
150, -25150.61, -30628.17, -19679.79, -15649.28, -18619.92, -20651.27, -23145.03, -21719.57, 0.000, 0.000, 0.000, 10:41:51.910, 1583739711910
151, -25625.45, -30689.64, -19760.04, -15704.96, -19090.60, -20679.92, -23377.71, -21929.68, 0.000, 0.000, 0.000, 10:41:51.910, 1583739711910
152, -25966.65, -30702.13, -19829.06, -15800.81, -19563.34, -20720.38, -23518.82, -22131.65, 0.000, 0.000, 0.000, 10:41:51.910, 1583739711910
153, -25887.25, -30694.91, -19819.49, -15775.28, -19482.49, -20699.64, -23458.18, -22105.05, 0.002, -0.016, 0.972, 10:41:51.910, 1583739711910
154, -25306.44, -30630.25, -19704.54, -15680.87, -18854.57, -20657.24, -23172.07, -21815.97, 0.000, 0.000, 0.000, 10:41:51.910, 1583739711910
155, -25152.06, -30628.15, -19667.34, -15636.45, -18610.22, -20642.24, -23135.55, -21711.52, 0.000, 0.000, 0.000, 10:41:51.910, 1583739711910
156, -25610.49, -30687.76, -19751.45, -15698.57, -19080.83, -20671.45, -23368.01, -21920.69, 0.000, 0.000, 0.000, 10:41:51.910, 1583739711910
157, -25964.66, -30698.71, -19823.56, -15794.75, -19556.26, -20712.82, -23510.95, -22124.09, 0.000, 0.000, 0.000, 10:41:51.910, 1583739711910
158, -25886.20, -30684.79, -19817.32, -15775.59, -19485.04, -20698.59, -23453.55, -22103.51, 0.000, 0.000, 0.000, 10:41:51.911, 1583739711911
159, -25296.03, -30625.89, -19704.38, -15681.00, -18857.56, -20657.53, -23170.78, -21813.33, 0.000, 0.000, 0.000, 10:41:51.911, 1583739711911
160, -25140.57, -30632.35, -19667.88, -15636.59, -18606.06, -20641.68, -23131.91, -21704.71, 0.000, 0.000, 0.000, 10:41:51.911, 1583739711911
161, -25611.90, -30689.97, -19751.88, -15701.94, -19077.46, -20674.54, -23369.44, -21919.28, 0.000, 0.000, 0.000, 10:41:51.911, 1583739711911
162, -25962.67, -30715.86, -19822.24, -15795.02, -19553.46, -20715.48, -23512.80, -22126.10, 0.000, 0.000, 0.000, 10:41:51.911, 1583739711911
163, -25887.21, -30706.29, -19815.76, -15769.22, -19483.50, -20697.38, -23456.48, -22106.37, 0.002, -0.016, 0.968, 10:41:51.911, 1583739711911
164, -25305.33, -30638.50, -19707.33, -15679.79, -18864.51, -20662.42, -23177.33, -21822.57, 0.000, 0.000, 0.000, 10:41:51.912, 1583739711912
165, -25144.84, -30631.19, -19669.82, -15633.99, -18610.96, -20649.19, -23137.07, -21714.36, 0.000, 0.000, 0.000, 10:41:51.912, 1583739711912
166, -25617.91, -30698.67, -19754.67, -15703.26, -19079.13, -20685.13, -23375.32, -21928.67, 0.000, 0.000, 0.000, 10:41:51.912, 1583739711912
167, -25966.00, -30708.37, -19827.31, -15805.52, -19558.47, -20727.08, -23517.59, -22133.61, 0.000, 0.000, 0.000, 10:41:51.912, 1583739711912
168, -25892.93, -30689.14, -19815.65, -15781.09, -19488.51, -20706.05, -23460.03, -22110.77, 0.000, 0.000, 0.000, 10:41:51.912, 1583739711912
169, -25305.84, -30627.03, -19705.92, -15690.66, -18869.70, -20665.71, -23177.28, -21823.75, 0.000, 0.000, 0.000, 10:41:51.912, 1583739711912
170, -25147.54, -30630.96, -19667.99, -15642.20, -18612.86, -20648.34, -23132.78, -21712.44, 0.000, 0.000, 0.000, 10:41:51.913, 1583739711913
171, -25619.17, -30694.55, -19754.63, -15707.73, -19081.66, -20682.76, -23371.65, -21925.90, 0.000, 0.000, 0.000, 10:41:51.913, 1583739711913
172, -25966.13, -30732.35, -19834.85, -15808.83, -19565.17, -20726.88, -23518.66, -22132.90, 0.000, 0.000, 0.000, 10:41:51.913, 1583739711913
173, -25895.59, -30719.34, -19829.86, -15785.76, -19505.09, -20709.58, -23465.69, -22114.68, 0.006, -0.016, 0.970, 10:41:51.913, 1583739711913
174, -25316.57, -30652.04, -19714.28, -15692.56, -18878.19, -20668.57, -23179.45, -21827.39, 0.000, 0.000, 0.000, 10:41:51.913, 1583739711913
175, -25147.21, -30642.61, -19673.38, -15646.00, -18611.13, -20651.04, -23129.81, -21712.75, 0.000, 0.000, 0.000, 10:41:51.914, 1583739711914
176, -25609.71, -30702.56, -19756.73, -15706.46, -19072.54, -20681.76, -23366.33, -21922.39, 0.000, 0.000, 0.000, 10:41:51.914, 1583739711914
177, -25956.50, -30713.84, -19824.43, -15801.48, -19549.19, -20719.26, -23511.44, -22124.74, 0.000, 0.000, 0.000, 10:41:51.914, 1583739711914
178, -25884.82, -30690.51, -19817.77, -15781.43, -19489.09, -20702.25, -23458.63, -22107.71, 0.000, 0.000, 0.000, 10:41:51.914, 1583739711914
179, -25310.22, -30627.66, -19706.15, -15689.05, -18868.16, -20661.82, -23175.74, -21820.44, 0.000, 0.000, 0.000, 10:41:51.914, 1583739711914
180, -25140.66, -30630.61, -19662.70, -15633.82, -18595.27, -20639.49, -23124.02, -21700.44, 0.000, 0.000, 0.000, 10:41:51.914, 1583739711914
181, -25601.55, -30683.60, -19742.51, -15692.35, -19054.48, -20668.39, -23358.04, -21907.57, 0.000, 0.000, 0.000, 10:41:51.914, 1583739711914
182, -25952.39, -30715.79, -19810.98, -15786.23, -19537.21, -20705.98, -23503.22, -22111.64, 0.000, 0.000, 0.000, 10:41:51.914, 1583739711914
183, -25895.43, -30706.78, -19806.57, -15773.78, -19484.17, -20690.74, -23453.17, -22098.68, 0.008, -0.016, 0.970, 10:41:51.914, 1583739711914
184, -25316.52, -30637.24, -19699.11, -15684.26, -18866.59, -20653.14, -23171.56, -21813.33, 0.000, 0.000, 0.000, 10:41:51.915, 1583739711915
185, -25133.64, -30632.30, -19655.83, -15626.13, -18590.35, -20632.07, -23117.22, -21691.63, 0.000, 0.000, 0.000, 10:41:51.915, 1583739711915
186, -25595.70, -30693.48, -19742.76, -15687.84, -19051.71, -20664.37, -23353.01, -21900.33, 0.000, 0.000, 0.000, 10:41:51.916, 1583739711916
187, -25944.88, -30703.14, -19811.40, -15786.05, -19535.18, -20705.81, -23500.82, -22107.66, 0.000, 0.000, 0.000, 10:41:51.916, 1583739711916
188, -25888.48, -30697.01, -19803.87, -15766.52, -19484.04, -20688.82, -23455.03, -22095.84, 0.000, 0.000, 0.000, 10:41:51.916, 1583739711916
189, -25323.72, -30632.46, -19699.69, -15677.60, -18871.35, -20651.80, -23176.75, -21813.02, 0.000, 0.000, 0.000, 10:41:51.916, 1583739711916
190, -25138.83, -30623.39, -19661.42, -15632.12, -18599.76, -20639.18, -23125.54, -21696.75, 0.000, 0.000, 0.000, 10:41:51.916, 1583739711916
191, -25602.56, -30678.10, -19744.26, -15691.59, -19057.66, -20671.05, -23361.73, -21905.85, 0.000, 0.000, 0.000, 10:41:51.916, 1583739711916
192, -25953.86, -30713.80, -19818.80, -15791.91, -19546.22, -20714.86, -23510.84, -22115.51, 0.000, 0.000, 0.000, 10:41:51.917, 1583739711917
193, -25902.52, -30705.04, -19819.11, -15780.73, -19505.96, -20703.71, -23469.29, -22109.94, 0.000, 0.000, 0.000, 10:41:51.917, 1583739711917
194, -25329.15, -30645.04, -19712.81, -15688.51, -18890.60, -20664.16, -23189.84, -21825.38, 0.006, -0.016, 0.968, 10:41:51.917, 1583739711917
195, -25139.52, -30634.32, -19669.69, -15638.04, -18607.58, -20645.75, -23133.61, -21701.91, 0.000, 0.000, 0.000, 10:41:51.917, 1583739711917
196, -25594.74, -30688.47, -19754.00, -15699.28, -19059.02, -20677.80, -23367.56, -21909.22, 0.000, 0.000, 0.000, 10:41:51.917, 1583739711917
197, -25945.17, -30712.88, -19822.31, -15794.14, -19542.71, -20716.80, -23509.36, -22115.20, 0.000, 0.000, 0.000, 10:41:51.917, 1583739711917
198, -25891.01, -30699.38, -19822.00, -15781.83, -19505.36, -20705.13, -23465.38, -22109.99, 0.000, 0.000, 0.000, 10:41:51.918, 1583739711918
199, -25328.91, -30633.36, -19714.08, -15687.33, -18893.48, -20662.98, -23183.05, -21824.58, 0.000, 0.000, 0.000, 10:41:51.918, 1583739711918
200, -25138.80, -30627.83, -19667.99, -15634.06, -18604.50, -20642.93, -23120.29, -21697.71, 0.000, 0.000, 0.000, 10:41:51.918, 1583739711918
201, -25591.47, -30684.00, -19746.29, -15693.58, -19050.21, -20673.17, -23353.57, -21905.40, 0.000, 0.000, 0.000, 10:41:51.918, 1583739711918
202, -25946.82, -30712.14, -19814.55, -15787.68, -19536.12, -20711.39, -23499.71, -22112.83, 0.000, 0.000, 0.000, 10:41:51.918, 1583739711918
203, -25901.13, -30700.16, -19812.65, -15773.67, -19496.13, -20695.57, -23455.99, -22106.03, 0.000, 0.000, 0.000, 10:41:51.918, 1583739711918
204, -25324.46, -30643.26, -19706.28, -15686.41, -18882.96, -20657.77, -23177.24, -21825.72, 0.008, -0.018, 0.966, 10:41:51.918, 1583739711918
205, -25124.41, -30635.01, -19660.95, -15634.35, -18590.48, -20638.24, -23114.32, -21698.94, 0.000, 0.000, 0.000, 10:41:51.919, 1583739711919
206, -25579.60, -30685.05, -19739.32, -15691.42, -19036.76, -20666.04, -23347.22, -21901.15, 0.000, 0.000, 0.000, 10:41:51.919, 1583739711919
207, -25934.01, -30711.41, -19811.40, -15792.16, -19527.98, -20707.64, -23495.19, -22109.16, 0.000, 0.000, 0.000, 10:41:51.919, 1583739711919
208, -25903.48, -30699.58, -19813.39, -15779.15, -19497.61, -20694.25, -23454.04, -22103.08, 0.000, 0.000, 0.000, 10:41:51.919, 1583739711919
209, -25332.08, -30630.47, -19705.43, -15691.91, -18886.31, -20659.36, -23174.36, -21823.24, 0.000, 0.000, 0.000, 10:41:51.919, 1583739711919
210, -25126.24, -30625.60, -19657.40, -15635.27, -18587.53, -20637.95, -23110.16, -21691.83, 0.000, 0.000, 0.000, 10:41:52.375, 1583739712375
211, -25577.79, -30672.85, -19736.01, -15692.02, -19031.19, -20667.14, -23343.13, -21895.46, 0.000, 0.000, 0.000, 10:41:52.375, 1583739712375
212, -25936.25, -30698.02, -19813.05, -15793.56, -19527.60, -20712.65, -23496.60, -22107.48, 0.000, 0.000, 0.000, 10:41:52.375, 1583739712375
213, -25899.86, -30701.30, -19819.56, -15781.49, -19505.90, -20702.72, -23462.31, -22108.76, 0.000, 0.000, 0.000, 10:41:52.375, 1583739712375
214, -25329.96, -30648.80, -19720.09, -15695.15, -18901.06, -20667.99, -23186.74, -21831.95, 0.004, -0.022, 0.966, 10:41:52.376, 1583739712376
215, -25126.18, -30644.89, -19680.84, -15649.48, -18606.26, -20653.66, -23125.72, -21703.86, 0.000, 0.000, 0.000, 10:41:52.376, 1583739712376
216, -25574.57, -30686.73, -19755.37, -15701.23, -19044.40, -20676.79, -23355.20, -21899.79, 0.000, 0.000, 0.000, 10:41:52.376, 1583739712376
217, -25932.29, -30699.09, -19822.17, -15792.27, -19534.33, -20712.15, -23504.78, -22104.29, 0.000, 0.000, 0.000, 10:41:52.376, 1583739712376
218, -25895.39, -30686.78, -19816.70, -15767.86, -19505.85, -20690.79, -23463.56, -22097.36, 0.000, 0.000, 0.000, 10:41:52.376, 1583739712376
219, -25323.56, -30618.45, -19712.94, -15682.63, -18899.61, -20654.26, -23184.44, -21818.32, 0.000, 0.000, 0.000, 10:41:52.376, 1583739712376
220, -25117.66, -30618.22, -19669.80, -15633.79, -18600.65, -20639.91, -23120.85, -21689.57, 0.000, 0.000, 0.000, 10:41:52.376, 1583739712376
221, -25566.39, -30670.88, -19746.22, -15684.46, -19038.32, -20664.68, -23351.60, -21887.88, 0.000, 0.000, 0.000, 10:41:52.380, 1583739712380
222, -25926.64, -30690.67, -19815.96, -15786.70, -19532.54, -20706.95, -23501.63, -22099.39, 0.000, 0.000, 0.000, 10:41:52.380, 1583739712380
223, -25905.69, -30682.84, -19815.67, -15782.28, -19511.48, -20696.82, -23464.57, -22104.71, 0.000, 0.000, 0.000, 10:41:52.381, 1583739712381
224, -25336.57, -30616.81, -19707.35, -15686.54, -18898.64, -20654.29, -23181.24, -21822.46, 0.000, -0.020, 0.968, 10:41:52.381, 1583739712381
225, -25115.02, -30625.26, -19654.40, -15625.54, -18580.69, -20629.07, -23102.27, -21680.70, 0.000, 0.000, 0.000, 10:41:52.381, 1583739712381
226, -25567.27, -30691.67, -19728.90, -15676.66, -19014.27, -20657.79, -23335.20, -21880.99, 0.000, 0.000, 0.000, 10:41:52.381, 1583739712381
227, -25929.39, -30706.11, -19799.40, -15771.93, -19509.92, -20697.31, -23487.32, -22091.14, 0.000, 0.000, 0.000, 10:41:52.381, 1583739712381
228, -25902.52, -30687.94, -19808.03, -15770.18, -19497.22, -20690.92, -23453.17, -22097.47, 0.000, 0.000, 0.000, 10:41:52.381, 1583739712381
229, -25335.25, -30622.76, -19705.01, -15685.02, -18890.84, -20654.89, -23174.49, -21819.75, 0.000, 0.000, 0.000, 10:41:52.382, 1583739712382
230, -25109.79, -30618.63, -19652.17, -15629.14, -18574.48, -20634.39, -23098.52, -21679.60, 0.000, 0.000, 0.000, 10:41:52.382, 1583739712382
231, -25561.03, -30683.20, -19727.29, -15683.79, -19008.62, -20662.76, -23327.78, -21878.74, 0.000, 0.000, 0.000, 10:41:52.382, 1583739712382
232, -25930.17, -30698.09, -19811.18, -15788.38, -19517.10, -20710.37, -23487.30, -22095.99, 0.000, 0.000, 0.000, 10:41:52.382, 1583739712382
233, -25907.41, -30692.88, -19820.68, -15782.03, -19512.92, -20702.10, -23458.18, -22104.91, 0.000, 0.000, 0.000, 10:41:52.382, 1583739712382
234, -25346.95, -30629.20, -19709.59, -15690.61, -18905.62, -20661.44, -23179.56, -21825.16, -0.002, -0.018, 0.968, 10:41:52.382, 1583739712382
235, -25121.82, -30621.38, -19650.13, -15624.25, -18582.48, -20632.87, -23099.16, -21678.53, 0.000, 0.000, 0.000, 10:41:52.382, 1583739712382
236, -25565.84, -30689.44, -19726.84, -15673.15, -19015.54, -20658.96, -23331.11, -21875.61, 0.000, 0.000, 0.000, 10:41:52.382, 1583739712382
237, -25938.86, -30711.23, -19812.96, -15784.33, -19525.30, -20711.97, -23496.38, -22097.20, 0.000, 0.000, 0.000, 10:41:52.382, 1583739712382
238, -25921.52, -30703.32, -19824.70, -15785.56, -19523.04, -20707.59, -23471.14, -22109.81, 0.000, 0.000, 0.000, 10:41:52.383, 1583739712383
239, -25352.94, -30636.80, -19719.20, -15694.05, -18917.98, -20667.27, -23192.19, -21831.48, 0.000, 0.000, 0.000, 10:41:52.383, 1583739712383
240, -25114.15, -30622.89, -19662.85, -15632.36, -18592.98, -20642.35, -23109.96, -21686.85, 0.000, 0.000, 0.000, 10:41:52.383, 1583739712383
241, -25560.16, -30681.95, -19738.51, -15682.90, -19023.70, -20667.74, -23340.90, -21883.18, 0.000, 0.000, 0.000, 10:41:52.383, 1583739712383
242, -25934.24, -30713.24, -19817.77, -15787.95, -19533.99, -20714.41, -23501.36, -22102.46, 0.000, 0.000, 0.000, 10:41:52.383, 1583739712383
243, -25913.36, -30691.92, -19830.85, -15794.01, -19537.77, -20710.77, -23476.48, -22117.43, 0.000, 0.000, 0.000, 10:41:52.383, 1583739712383
244, -25343.66, -30622.56, -19724.56, -15702.82, -18934.14, -20669.39, -23197.80, -21838.26, -0.002, -0.022, 0.968, 10:41:52.383, 1583739712383
245, -25104.00, -30624.28, -19661.78, -15626.82, -18597.03, -20634.32, -23110.72, -21682.40, 0.000, 0.000, 0.000, 10:41:52.384, 1583739712384
246, -25564.27, -30682.73, -19740.77, -15682.54, -19024.24, -20664.68, -23343.69, -21880.12, 0.000, 0.000, 0.000, 10:41:52.384, 1583739712384
247, -25937.50, -30702.87, -19820.88, -15790.25, -19533.68, -20714.77, -23504.11, -22100.94, 0.000, 0.000, 0.000, 10:41:52.384, 1583739712384
248, -25922.88, -30700.92, -19825.88, -15788.29, -19535.83, -20709.61, -23477.51, -22116.42, 0.000, 0.000, 0.000, 10:41:52.384, 1583739712384
249, -25358.19, -30635.59, -19713.61, -15695.64, -18929.89, -20668.12, -23195.28, -21838.23, 0.000, 0.000, 0.000, 10:41:52.384, 1583739712384
250, -25117.39, -30620.41, -19652.10, -15630.08, -18593.70, -20640.03, -23106.47, -21685.08, 0.000, 0.000, 0.000, 10:41:52.384, 1583739712384
251, -25556.29, -30678.82, -19733.62, -15684.26, -19018.12, -20670.49, -23338.28, -21881.93, 0.000, 0.000, 0.000, 10:41:52.384, 1583739712384
252, -25932.98, -30703.45, -19816.90, -15790.19, -19530.75, -20720.27, -23499.44, -22101.67, 0.000, 0.000, 0.000, 10:41:52.384, 1583739712384
253, -25923.24, -30706.40, -19823.13, -15789.56, -19538.11, -20713.23, -23473.87, -22117.07, 0.000, 0.000, 0.000, 10:41:52.384, 1583739712384
254, -25359.64, -30631.86, -19708.45, -15693.87, -18930.00, -20667.79, -23192.53, -21835.75, 0.000, -0.016, 0.968, 10:41:52.384, 1583739712384
255, -25105.72, -30609.91, -19648.61, -15629.32, -18586.01, -20638.95, -23099.05, -21677.73, 0.000, 0.000, 0.000, 10:41:52.385, 1583739712385
0, -25545.23, -30671.96, -19725.91, -15681.56, -19006.22, -20666.65, -23328.09, -21871.52, 0.000, 0.000, 0.000, 10:41:52.385, 1583739712385
1, -25921.72, -30699.20, -19805.14, -15788.98, -19520.49, -20714.41, -23491.04, -22092.62, 0.000, 0.000, 0.000, 10:41:52.385, 1583739712385
2, -25921.27, -30700.28, -19810.31, -15784.35, -19527.85, -20703.57, -23464.55, -22107.13, 0.000, 0.000, 0.000, 10:41:52.385, 1583739712385
3, -25365.25, -30642.16, -19701.72, -15693.18, -18923.03, -20661.55, -23184.97, -21830.61, 0.000, 0.000, 0.000, 10:41:52.385, 1583739712385
4, -25118.49, -30630.94, -19647.70, -15637.48, -18583.26, -20640.76, -23097.00, -21679.38, 0.000, 0.000, 0.000, 10:41:52.385, 1583739712385
5, -25556.36, -30680.88, -19720.00, -15685.13, -18996.66, -20663.49, -23322.93, -21868.10, 0.000, 0.000, 0.000, 10:41:52.386, 1583739712386
6, -25935.00, -30707.43, -19796.67, -15781.05, -19506.41, -20704.44, -23484.62, -22083.81, 0.000, 0.000, 0.000, 10:41:52.386, 1583739712386
7, -25931.87, -30701.39, -19806.30, -15774.90, -19519.64, -20693.04, -23461.35, -22099.08, 0.000, 0.000, 0.000, 10:41:52.386, 1583739712386
8, -25372.74, -30636.39, -19701.97, -15687.59, -18922.12, -20654.73, -23184.75, -21825.29, -0.004, -0.018, 0.972, 10:41:52.386, 1583739712386
9, -25118.82, -30624.91, -19649.96, -15631.22, -18583.06, -20637.25, -23100.42, -21675.36, 0.000, 0.000, 0.000, 10:41:52.386, 1583739712386
10, -25555.78, -30683.45, -19732.32, -15682.27, -19000.86, -20665.10, -23332.78, -21867.74, 0.000, 0.000, 0.000, 10:41:52.386, 1583739712386
11, -25938.46, -30709.60, -19815.67, -15789.63, -19518.77, -20713.49, -23498.68, -22091.28, 0.000, 0.000, 0.000, 10:41:52.386, 1583739712386
12, -25932.72, -30684.34, -19816.30, -15781.83, -19533.32, -20700.55, -23474.05, -22107.30, 0.000, 0.000, 0.000, 10:41:52.386, 1583739712386
13, -25370.21, -30628.53, -19706.91, -15685.54, -18933.76, -20659.13, -23195.61, -21832.45, 0.000, 0.000, 0.000, 10:41:52.386, 1583739712386
14, -25113.10, -30631.12, -19645.69, -15619.02, -18579.28, -20631.98, -23098.47, -21671.49, 0.000, 0.000, 0.000, 10:41:52.387, 1583739712387
15, -25554.90, -30689.88, -19725.35, -15672.24, -18993.75, -20661.06, -23329.70, -21862.71, 0.000, 0.000, 0.000, 10:41:52.387, 1583739712387
16, -25936.65, -30711.16, -19812.07, -15779.79, -19516.02, -20711.37, -23498.30, -22086.23, 0.000, 0.000, 0.000, 10:41:52.387, 1583739712387
17, -25931.15, -30692.32, -19830.73, -15785.49, -19545.24, -20709.16, -23481.65, -22110.70, 0.000, 0.000, 0.000, 10:41:52.387, 1583739712387
18, -25366.93, -30620.86, -19722.78, -15696.98, -18948.82, -20669.69, -23201.76, -21836.85, -0.002, -0.018, 0.968, 10:41:52.387, 1583739712387
19, -25106.02, -30619.68, -19650.71, -15628.65, -18585.59, -20639.58, -23095.47, -21673.01, 0.000, 0.000, 0.000, 10:41:52.387, 1583739712387
20, -25541.38, -30681.57, -19724.81, -15675.99, -18992.75, -20664.54, -23320.96, -21859.71, 0.000, 0.000, 0.000, 10:41:52.387, 1583739712387
21, -25922.17, -30698.20, -19810.66, -15789.23, -19518.15, -20717.18, -23491.82, -22085.91, 0.000, 0.000, 0.000, 10:41:52.387, 1583739712387
22, -25926.50, -30683.96, -19825.91, -15795.17, -19548.07, -20714.93, -23474.63, -22112.18, 0.000, 0.000, 0.000, 10:41:52.388, 1583739712388
23, -25369.65, -30623.77, -19725.10, -15716.05, -18959.02, -20683.12, -23201.40, -21847.06, 0.000, 0.000, 0.000, 10:41:52.388, 1583739712388
24, -25108.54, -30609.17, -19657.91, -15649.15, -18591.91, -20654.71, -23097.35, -21683.34, 0.000, 0.000, 0.000, 10:41:52.388, 1583739712388
25, -25539.15, -30677.19, -19724.34, -15679.46, -18985.10, -20667.23, -23318.50, -21861.88, 0.000, 0.000, 0.000, 10:41:52.388, 1583739712388
26, -25925.88, -30700.43, -19802.71, -15777.74, -19502.97, -20708.87, -23482.43, -22080.71, 0.000, 0.000, 0.000, 10:41:52.388, 1583739712388
27, -25934.21, -30700.34, -19819.04, -15785.58, -19540.27, -20706.74, -23470.16, -22108.76, 0.000, 0.000, 0.000, 10:41:52.388, 1583739712388
28, -25373.52, -30637.07, -19718.96, -15700.80, -18952.98, -20671.96, -23199.37, -21841.21, 0.002, -0.020, 0.972, 10:41:52.388, 1583739712388
29, -25094.84, -30612.66, -19654.63, -15634.82, -18586.26, -20646.02, -23094.54, -21675.98, 0.000, 0.000, 0.000, 10:41:52.389, 1583739712389
30, -25530.45, -30671.64, -19729.24, -15681.13, -18988.61, -20670.98, -23323.89, -21863.87, 0.000, 0.000, 0.000, 10:41:52.389, 1583739712389
31, -25920.29, -30701.21, -19808.00, -15786.08, -19510.97, -20717.54, -23494.70, -22088.75, 0.000, 0.000, 0.000, 10:41:52.389, 1583739712389
32, -25927.24, -30691.89, -19817.46, -15787.93, -19543.67, -20707.75, -23477.60, -22113.27, 0.000, 0.000, 0.000, 10:41:52.389, 1583739712389
33, -25376.56, -30610.36, -19715.31, -15697.92, -18951.46, -20667.56, -23203.99, -21843.53, 0.000, 0.000, 0.000, 10:41:52.389, 1583739712389
34, -25092.56, -30618.49, -19653.15, -15637.01, -18584.13, -20645.90, -23100.62, -21680.59, 0.000, 0.000, 0.000, 10:41:52.389, 1583739712389
35, -25532.42, -30679.49, -19724.74, -15680.87, -18979.02, -20668.86, -23324.42, -21865.10, 0.000, 0.000, 0.000, 10:41:52.389, 1583739712389
36, -25929.25, -30701.55, -19801.43, -15776.40, -19498.37, -20710.86, -23489.83, -22085.27, 0.000, 0.000, 0.000, 10:41:52.389, 1583739712389
37, -25942.22, -30704.32, -19811.13, -15776.93, -19538.20, -20704.22, -23473.80, -22112.94, 0.000, 0.000, 0.000, 10:41:52.389, 1583739712389
38, -25391.63, -30647.08, -19707.04, -15694.70, -18952.02, -20668.81, -23202.41, -21846.37, 0.000, 0.000, 0.000, 10:41:52.390, 1583739712390
39, -25107.38, -30627.28, -19649.82, -15635.38, -18584.67, -20646.87, -23098.94, -21679.74, 0.004, -0.026, 0.974, 10:41:52.390, 1583739712390
40, -25537.58, -30686.06, -19725.57, -15676.91, -18983.72, -20670.09, -23326.23, -21863.92, 0.000, 0.000, 0.000, 10:41:52.390, 1583739712390
41, -25927.89, -30703.63, -19803.91, -15776.62, -19508.45, -20713.12, -23494.41, -22084.04, 0.000, 0.000, 0.000, 10:41:52.390, 1583739712390
42, -25947.16, -30691.89, -19819.09, -15783.19, -19552.95, -20706.66, -23481.83, -22111.33, 0.000, 0.000, 0.000, 10:41:52.390, 1583739712390
43, -25395.98, -30619.18, -19715.96, -15698.23, -18967.33, -20669.24, -23206.52, -21843.22, 0.000, 0.000, 0.000, 10:41:52.390, 1583739712390
44, -25106.35, -30614.02, -19648.88, -15629.05, -18589.72, -20641.01, -23093.89, -21669.72, 0.000, 0.000, 0.000, 10:41:52.390, 1583739712390
45, -25535.41, -30685.17, -19720.50, -15669.94, -18980.81, -20662.78, -23317.47, -21848.70, 0.000, 0.000, 0.000, 10:41:52.390, 1583739712390
46, -25925.54, -30715.59, -19807.65, -15783.71, -19509.16, -20717.38, -23490.72, -22078.74, 0.000, 0.000, 0.000, 10:41:52.391, 1583739712391
47, -25946.28, -30706.36, -19823.43, -15788.94, -19557.37, -20713.41, -23482.68, -22113.00, 0.000, 0.000, 0.000, 10:41:52.391, 1583739712391
48, -25401.95, -30636.69, -19719.24, -15696.67, -18972.56, -20670.91, -23209.74, -21842.28, 0.000, 0.000, 0.000, 10:41:52.391, 1583739712391
49, -25102.51, -30619.90, -19654.45, -15635.85, -18592.05, -20648.61, -23096.53, -21671.33, 0.004, -0.020, 0.970, 10:41:52.391, 1583739712391
50, -25525.67, -30674.93, -19730.67, -15685.98, -18982.22, -20676.75, -23320.56, -21856.68, 0.000, 0.000, 0.000, 10:41:52.391, 1583739712391
51, -25922.37, -30695.89, -19808.21, -15785.83, -19506.99, -20718.52, -23486.25, -22078.25, 0.000, 0.000, 0.000, 10:41:52.391, 1583739712391
52, -25942.60, -30690.60, -19827.70, -15794.61, -19561.26, -20716.06, -23478.43, -22114.41, 0.000, 0.000, 0.000, 10:41:52.391, 1583739712391
53, -25393.35, -30628.42, -19720.07, -15704.09, -18974.37, -20673.57, -23203.43, -21847.00, 0.000, 0.000, 0.000, 10:41:52.392, 1583739712392
54, -25094.95, -30614.71, -19642.96, -15633.50, -18579.93, -20640.90, -23081.71, -21667.58, 0.000, 0.000, 0.000, 10:41:52.392, 1583739712392
55, -25521.58, -30675.00, -19712.70, -15677.00, -18961.83, -20662.49, -23302.16, -21844.96, 0.000, 0.000, 0.000, 10:41:52.392, 1583739712392
56, -25915.82, -30690.44, -19792.67, -15781.65, -19491.10, -20707.39, -23471.14, -22068.10, 0.000, 0.000, 0.000, 10:41:52.392, 1583739712392
57, -25929.36, -30682.35, -19803.53, -15783.44, -19543.63, -20699.66, -23458.83, -22099.30, 0.000, 0.000, 0.000, 10:41:52.392, 1583739712392
58, -25381.81, -30622.65, -19699.17, -15689.23, -18962.19, -20655.67, -23185.29, -21831.17, 0.000, 0.000, 0.000, 10:41:52.392, 1583739712392
59, -25092.83, -30607.79, -19633.82, -15622.35, -18571.82, -20628.45, -23069.28, -21654.95, 0.004, -0.020, 0.974, 10:41:52.393, 1583739712393
60, -25512.73, -30660.09, -19707.20, -15668.46, -18954.88, -20651.42, -23293.76, -21833.34, 0.000, 0.000, 0.000, 10:41:52.393, 1583739712393
61, -25911.48, -30685.86, -19794.62, -15780.31, -19489.94, -20704.22, -23473.55, -22065.24, 0.000, 0.000, 0.000, 10:41:52.393, 1583739712393
62, -25938.46, -30674.26, -19811.45, -15786.19, -19553.37, -20701.92, -23470.72, -22105.81, 0.000, 0.000, 0.000, 10:41:52.393, 1583739712393
63, -25395.63, -30627.16, -19710.71, -15695.86, -18974.55, -20662.78, -23200.75, -21841.81, 0.000, 0.000, 0.000, 10:41:52.393, 1583739712393
64, -25096.29, -30606.78, -19637.66, -15623.98, -18575.21, -20631.42, -23076.25, -21658.08, 0.000, 0.000, 0.000, 10:41:52.393, 1583739712393
65, -25516.30, -30668.51, -19711.42, -15669.29, -18956.51, -20656.41, -23300.13, -21836.89, 0.000, 0.000, 0.000, 10:41:52.394, 1583739712394
66, -25912.51, -30696.54, -19799.00, -15772.78, -19492.58, -20705.07, -23476.24, -22064.21, 0.000, 0.000, 0.000, 10:41:52.394, 1583739712394
67, -25945.12, -30682.84, -19822.17, -15787.84, -19563.34, -20706.86, -23474.65, -22108.04, 0.000, 0.000, 0.000, 10:41:52.394, 1583739712394
68, -25398.76, -30618.02, -19714.66, -15692.51, -18983.52, -20662.49, -23199.25, -21840.83, 0.000, 0.000, 0.000, 10:41:52.394, 1583739712394
69, -25084.31, -30598.89, -19640.83, -15620.20, -18581.76, -20631.17, -23074.31, -21658.19, 0.004, -0.022, 0.974, 10:41:52.394, 1583739712394
70, -25512.21, -30660.56, -19713.50, -15664.24, -18958.97, -20653.99, -23296.71, -21835.35, 0.000, 0.000, 0.000, 10:41:52.394, 1583739712394
71, -25913.87, -30702.96, -19798.26, -15773.63, -19493.09, -20704.98, -23471.88, -22064.28, 0.000, 0.000, 0.000, 10:41:52.394, 1583739712394
72, -25950.15, -30687.47, -19814.06, -15779.53, -19559.99, -20701.65, -23467.48, -22104.89, 0.000, 0.000, 0.000, 10:41:52.394, 1583739712394
73, -25413.73, -30613.55, -19711.31, -15694.41, -18987.45, -20663.52, -23197.96, -21844.61, 0.000, 0.000, 0.000, 10:41:52.395, 1583739712395
74, -25099.15, -30612.43, -19643.99, -15634.42, -18587.20, -20642.04, -23077.30, -21667.33, 0.000, 0.000, 0.000, 10:41:52.856, 1583739712856
75, -25505.73, -30681.48, -19717.26, -15679.48, -18962.75, -20669.42, -23300.40, -21845.72, 0.000, 0.000, 0.000, 10:41:52.856, 1583739712856
76, -25910.83, -30700.32, -19796.02, -15776.58, -19494.83, -20712.65, -23474.63, -22069.64, 0.000, 0.000, 0.000, 10:41:52.857, 1583739712857
77, -25955.04, -30696.43, -19814.35, -15781.72, -19566.65, -20707.93, -23473.85, -22110.79, 0.000, 0.000, 0.000, 10:41:52.857, 1583739712857
