%OpenBCI Raw EEG Data
%Number of channels = 8
%Sample Rate = 250.0 Hz
%First Column = SampleIndex
%Last Column = Timestamp 
%Other Columns = EEG data in microvolts followed by Accel Data (in G) interleaved with Aux Data
0, 0.00, 0.00, 0.00, 0.00, 0.00, 0.00, 0.00, 0.00, 0.000, 0.000, 0.000, 10:40:38.163, 1583739638163
1, -25907.79, -30855.44, -19951.59, -16016.72, -19606.64, -20872.82, -23509.70, -22239.07, 0.002, -0.020, 0.968, 10:40:38.642, 1583739638642
2, -25350.88, -30804.66, -19837.71, -15943.36, -18998.29, -20846.33, -23252.59, -21944.52, 0.000, 0.000, 0.000, 10:40:38.643, 1583739638643
3, -25570.69, -30852.87, -19874.03, -15960.29, -19150.44, -20862.00, -23396.87, -22024.09, 0.000, 0.000, 0.000, 10:40:38.643, 1583739638643
4, -26145.86, -30914.29, -19996.85, -16062.88, -19794.95, -20911.64, -23677.80, -22328.99, 0.000, 0.000, 0.000, 10:40:38.643, 1583739638643
5, -26380.31, -30925.00, -20057.52, -16095.98, -20096.70, -20919.53, -23770.90, -22473.40, 0.000, 0.000, 0.000, 10:40:38.643, 1583739638643
6, -25916.60, -30864.94, -19968.02, -16016.50, -19626.02, -20878.23, -23522.01, -22246.11, 0.000, 0.000, 0.000, 10:40:38.644, 1583739638644
7, -25353.38, -30810.83, -19846.76, -15940.37, -19008.75, -20848.05, -23260.92, -21948.16, 0.000, 0.000, 0.000, 10:40:38.644, 1583739638644
8, -25561.77, -30851.22, -19869.74, -15944.30, -19142.53, -20850.40, -23392.80, -22013.36, 0.006, -0.020, 0.974, 10:40:38.644, 1583739638644
9, -26137.15, -30907.70, -19989.88, -16046.45, -19784.29, -20897.58, -23672.66, -22314.33, 0.000, 0.000, 0.000, 10:40:38.644, 1583739638644
10, -26374.43, -30916.19, -20055.26, -16095.29, -20092.07, -20915.20, -23768.24, -22467.97, 0.000, 0.000, 0.000, 10:40:38.651, 1583739638651
11, -25917.76, -30846.90, -19972.11, -16022.09, -19630.91, -20879.93, -23523.04, -22249.44, 0.000, 0.000, 0.000, 10:40:38.652, 1583739638652
12, -25346.25, -30797.57, -19850.40, -15945.20, -19014.07, -20848.68, -23257.93, -21949.95, 0.000, 0.000, 0.000, 10:40:38.652, 1583739638652
13, -25552.20, -30846.37, -19873.54, -15950.36, -19143.80, -20851.88, -23388.35, -22013.16, 0.000, 0.000, 0.000, 10:40:38.652, 1583739638652
14, -26122.17, -30901.82, -19990.26, -16042.61, -19780.78, -20894.57, -23668.06, -22311.13, 0.000, 0.000, 0.000, 10:40:38.652, 1583739638652
15, -26378.63, -30908.73, -20051.30, -16088.20, -20089.50, -20909.23, -23765.27, -22464.75, 0.000, 0.000, 0.000, 10:40:38.653, 1583739638653
16, -25937.32, -30874.22, -19972.89, -16026.71, -19636.88, -20878.67, -23526.78, -22252.23, 0.000, 0.000, 0.000, 10:40:38.653, 1583739638653
17, -25357.20, -30819.46, -19857.98, -15946.72, -19019.57, -20845.71, -23262.51, -21950.73, 0.000, 0.000, 0.000, 10:40:38.653, 1583739638653
18, -25551.82, -30846.70, -19877.56, -15952.24, -19143.31, -20849.91, -23387.61, -22011.33, 0.002, -0.020, 0.970, 10:40:38.653, 1583739638653
19, -26124.81, -30898.40, -19989.32, -16055.37, -19779.06, -20901.18, -23666.07, -22314.06, 0.000, 0.000, 0.000, 10:40:38.653, 1583739638653
20, -26373.54, -30921.60, -20046.34, -16093.68, -20089.68, -20913.68, -23764.35, -22467.21, 0.000, 0.000, 0.000, 10:40:38.654, 1583739638654
21, -25926.70, -30863.62, -19960.42, -16016.34, -19635.02, -20874.18, -23522.37, -22248.32, 0.000, 0.000, 0.000, 10:40:38.654, 1583739638654
22, -25353.87, -30806.45, -19842.04, -15940.26, -19013.47, -20844.16, -23257.86, -21947.67, 0.000, 0.000, 0.000, 10:40:38.654, 1583739638654
23, -25545.23, -30840.09, -19858.16, -15935.32, -19126.03, -20842.33, -23379.28, -22002.07, 0.000, 0.000, 0.000, 10:40:38.654, 1583739638654
24, -26117.83, -30900.77, -19975.93, -16034.05, -19762.05, -20891.53, -23660.01, -22303.44, 0.000, 0.000, 0.000, 10:40:38.654, 1583739638654
25, -26375.77, -30922.03, -20041.06, -16087.02, -20086.51, -20911.26, -23764.37, -22463.23, 0.000, 0.000, 0.000, 10:40:38.655, 1583739638655
26, -25942.78, -30873.48, -19962.05, -16023.34, -19642.42, -20879.93, -23528.92, -22256.23, 0.000, 0.000, 0.000, 10:40:38.655, 1583739638655
27, -25356.42, -30809.15, -19841.35, -15938.94, -19018.85, -20844.21, -23257.46, -21952.34, 0.000, 0.000, 0.000, 10:40:38.655, 1583739638655
28, -25544.00, -30844.33, -19858.34, -15930.69, -19128.29, -20841.88, -23379.28, -22003.71, 0.002, -0.016, 0.972, 10:40:38.655, 1583739638655
29, -26126.01, -30905.11, -19977.97, -16032.01, -19765.15, -20892.22, -23662.85, -22304.07, 0.000, 0.000, 0.000, 10:40:38.655, 1583739638655
30, -26375.71, -30913.06, -20044.35, -16084.43, -20089.28, -20907.96, -23762.83, -22460.46, 0.000, 0.000, 0.000, 10:40:38.655, 1583739638655
31, -25941.23, -30857.90, -19966.14, -16021.13, -19647.34, -20876.19, -23526.19, -22253.13, 0.000, 0.000, 0.000, 10:40:38.655, 1583739638655
32, -25365.68, -30808.32, -19849.55, -15948.13, -19024.93, -20848.72, -23260.10, -21954.38, 0.000, 0.000, 0.000, 10:40:38.655, 1583739638655
33, -25547.19, -30846.84, -19867.77, -15946.72, -19131.39, -20850.64, -23383.75, -22007.91, 0.000, 0.000, 0.000, 10:40:38.656, 1583739638656
34, -26114.64, -30898.96, -19985.21, -16039.32, -19765.69, -20893.98, -23663.52, -22302.48, 0.000, 0.000, 0.000, 10:40:38.656, 1583739638656
35, -26372.02, -30907.32, -20057.70, -16094.24, -20096.41, -20915.87, -23773.83, -22467.91, 0.000, 0.000, 0.000, 10:40:38.656, 1583739638656
36, -25941.75, -30865.93, -19981.61, -16033.55, -19661.91, -20889.45, -23545.01, -22267.50, 0.000, 0.000, 0.000, 10:40:38.656, 1583739638656
37, -25353.38, -30809.73, -19848.33, -15942.31, -19026.65, -20851.25, -23267.88, -21958.71, 0.000, 0.000, 0.000, 10:40:38.656, 1583739638656
38, -25534.95, -30840.89, -19874.77, -15947.52, -19135.15, -20860.05, -23391.86, -22013.88, 0.006, -0.016, 0.964, 10:40:38.656, 1583739638656
39, -26108.96, -30891.94, -19998.80, -16055.82, -19775.17, -20913.34, -23675.50, -22316.18, 0.000, 0.000, 0.000, 10:40:38.657, 1583739638657
40, -26371.97, -30930.77, -20065.36, -16108.50, -20105.08, -20931.65, -23780.38, -22480.24, 0.000, 0.000, 0.000, 10:40:38.668, 1583739638668
41, -25946.06, -30870.91, -19977.77, -16028.14, -19663.70, -20888.76, -23540.97, -22267.57, 0.000, 0.000, 0.000, 10:40:38.669, 1583739638669
42, -25357.83, -30809.51, -19848.26, -15936.44, -19029.87, -20850.98, -23266.09, -21958.62, 0.000, 0.000, 0.000, 10:40:38.669, 1583739638669
43, -25527.30, -30845.25, -19866.28, -15936.19, -19125.98, -20850.80, -23381.53, -22005.40, 0.000, 0.000, 0.000, 10:40:38.669, 1583739638669
44, -26108.07, -30898.80, -19984.94, -16039.19, -19757.82, -20899.42, -23661.02, -22304.00, 0.000, 0.000, 0.000, 10:40:38.669, 1583739638669
45, -26373.81, -30921.31, -20057.20, -16095.51, -20095.76, -20922.21, -23769.67, -22472.64, 0.000, 0.000, 0.000, 10:40:38.669, 1583739638669
46, -25952.92, -30871.49, -19981.27, -16031.59, -19667.05, -20891.30, -23543.18, -22274.61, 0.000, 0.000, 0.000, 10:40:38.670, 1583739638670
47, -25366.05, -30810.56, -19852.08, -15948.24, -19032.04, -20857.15, -23270.56, -21967.54, 0.000, 0.000, 0.000, 10:40:38.670, 1583739638670
48, -25533.04, -30846.55, -19868.29, -15945.11, -19122.83, -20856.08, -23384.37, -22009.70, 0.006, -0.018, 0.966, 10:40:38.670, 1583739638670
49, -26101.00, -30915.08, -19985.25, -16038.18, -19753.78, -20900.15, -23663.81, -22303.15, 0.000, 0.000, 0.000, 10:40:38.670, 1583739638670
50, -26370.52, -30934.75, -20059.13, -16096.70, -20094.75, -20923.69, -23775.08, -22472.76, 0.000, 0.000, 0.000, 10:40:38.670, 1583739638670
51, -25959.58, -30870.37, -19983.08, -16029.96, -19670.81, -20888.51, -23548.50, -22274.36, 0.000, 0.000, 0.000, 10:40:38.670, 1583739638670
52, -25367.82, -30804.39, -19855.63, -15940.77, -19034.95, -20848.61, -23272.10, -21964.68, 0.000, 0.000, 0.000, 10:40:38.670, 1583739638670
53, -25531.03, -30831.08, -19868.44, -15942.27, -19122.07, -20851.23, -23385.33, -22011.53, 0.000, 0.000, 0.000, 10:40:38.670, 1583739638670
54, -26098.46, -30912.33, -19983.87, -16037.35, -19751.65, -20897.32, -23662.52, -22304.85, 0.000, 0.000, 0.000, 10:40:38.671, 1583739638671
55, -26358.81, -30929.25, -20053.49, -16089.17, -20090.17, -20917.25, -23771.53, -22468.80, 0.000, 0.000, 0.000, 10:40:38.671, 1583739638671
56, -25953.59, -30878.84, -19984.00, -16029.96, -19677.18, -20890.61, -23553.80, -22279.12, 0.000, 0.000, 0.000, 10:40:38.671, 1583739638671
57, -25376.20, -30813.98, -19859.48, -15945.89, -19044.80, -20854.60, -23279.90, -21972.37, 0.000, 0.000, 0.000, 10:40:38.671, 1583739638671
58, -25535.84, -30843.15, -19873.14, -15942.07, -19127.44, -20853.30, -23390.36, -22013.94, 0.002, -0.018, 0.966, 10:40:38.671, 1583739638671
59, -26100.80, -30912.15, -19993.68, -16047.79, -19756.95, -20906.95, -23669.38, -22311.53, 0.000, 0.000, 0.000, 10:40:38.672, 1583739638672
60, -26362.14, -30930.25, -20063.62, -16104.83, -20096.83, -20927.96, -23776.42, -22477.36, 0.000, 0.000, 0.000, 10:40:38.672, 1583739638672
61, -25963.38, -30874.40, -19990.42, -16042.16, -19686.39, -20896.22, -23558.36, -22288.00, 0.000, 0.000, 0.000, 10:40:38.672, 1583739638672
62, -25379.58, -30814.83, -19866.56, -15952.93, -19056.18, -20858.87, -23283.97, -21981.06, 0.000, 0.000, 0.000, 10:40:38.672, 1583739638672
63, -25539.59, -30847.89, -19879.46, -15942.31, -19136.31, -20854.47, -23391.30, -22018.97, 0.000, 0.000, 0.000, 10:40:38.672, 1583739638672
64, -26089.76, -30906.29, -19995.80, -16045.53, -19753.42, -20905.07, -23661.33, -22307.31, 0.000, 0.000, 0.000, 10:40:38.672, 1583739638672
65, -26353.87, -30922.38, -20059.04, -16101.84, -20090.39, -20926.11, -23766.77, -22473.70, 0.000, 0.000, 0.000, 10:40:38.673, 1583739638673
66, -25963.52, -30865.68, -19973.32, -16031.61, -19678.50, -20887.59, -23544.86, -22281.85, 0.000, 0.000, 0.000, 10:40:38.673, 1583739638673
67, -25381.05, -30819.08, -19852.71, -15949.35, -19047.42, -20851.83, -23272.46, -21976.68, 0.000, 0.000, 0.000, 10:40:38.673, 1583739638673
68, -25553.23, -30872.47, -19872.91, -15943.23, -19131.48, -20852.63, -23391.50, -22021.70, 0.000, 0.000, 0.000, 10:40:38.673, 1583739638673
69, -26091.50, -30919.84, -19982.84, -16040.97, -19737.95, -20900.33, -23655.28, -22300.96, 0.002, -0.016, 0.972, 10:40:38.673, 1583739638673
70, -26339.32, -30929.02, -20049.71, -16100.34, -20073.12, -20923.18, -23758.85, -22463.66, 0.000, 0.000, 0.000, 10:40:38.673, 1583739638673
71, -25966.18, -30884.12, -19981.25, -16039.32, -19681.76, -20892.69, -23552.88, -22285.63, 0.000, 0.000, 0.000, 10:40:38.673, 1583739638673
72, -25405.93, -30828.40, -19864.42, -15964.15, -19061.10, -20863.81, -23290.83, -21991.81, 0.000, 0.000, 0.000, 10:40:38.674, 1583739638674
73, -25573.01, -30867.51, -19885.43, -15958.59, -19146.30, -20864.88, -23408.45, -22038.62, 0.000, 0.000, 0.000, 10:40:38.674, 1583739638674
74, -26089.83, -30915.30, -19984.87, -16035.95, -19737.80, -20897.18, -23656.95, -22301.21, 0.000, 0.000, 0.000, 10:40:38.674, 1583739638674
75, -26336.70, -30920.37, -20045.04, -16091.62, -20066.79, -20915.26, -23754.81, -22454.45, 0.000, 0.000, 0.000, 10:40:38.674, 1583739638674
76, -25968.75, -30865.97, -19977.92, -16031.03, -19680.58, -20882.88, -23550.40, -22278.41, 0.000, 0.000, 0.000, 10:40:38.674, 1583739638674
77, -25397.59, -30812.82, -19860.96, -15945.17, -19059.33, -20846.46, -23285.96, -21980.26, 0.000, 0.000, 0.000, 10:40:38.674, 1583739638674
78, -25556.54, -30852.09, -19874.68, -15932.12, -19136.42, -20842.13, -23398.14, -22020.42, 0.000, 0.000, 0.000, 10:40:38.674, 1583739638674
79, -26082.45, -30907.37, -19982.37, -16033.91, -19732.81, -20894.34, -23654.20, -22295.08, 0.004, -0.018, 0.970, 10:40:38.675, 1583739638675
80, -26331.05, -30933.56, -20050.68, -16102.02, -20068.00, -20922.73, -23758.32, -22457.80, 0.000, 0.000, 0.000, 10:40:38.675, 1583739638675
81, -25972.21, -30886.40, -19980.58, -16039.34, -19688.33, -20890.34, -23558.60, -22285.02, 0.000, 0.000, 0.000, 10:40:38.675, 1583739638675
82, -25400.95, -30821.94, -19861.29, -15944.48, -19064.00, -20849.08, -23289.51, -21984.19, 0.000, 0.000, 0.000, 10:40:38.675, 1583739638675
83, -25565.52, -30860.52, -19883.15, -15945.44, -19146.64, -20852.77, -23405.07, -22031.09, 0.000, 0.000, 0.000, 10:40:38.675, 1583739638675
84, -26080.84, -30914.27, -19991.82, -16046.21, -19738.56, -20903.71, -23658.38, -22301.18, 0.000, 0.000, 0.000, 10:40:38.675, 1583739638675
85, -26328.23, -30920.35, -20053.31, -16100.81, -20068.36, -20924.34, -23759.26, -22458.03, 0.000, 0.000, 0.000, 10:40:38.675, 1583739638675
86, -25980.01, -30874.31, -19980.47, -16030.51, -19690.75, -20884.60, -23560.12, -22285.56, 0.000, 0.000, 0.000, 10:40:38.675, 1583739638675
87, -25412.44, -30822.72, -19865.02, -15949.71, -19074.69, -20851.85, -23296.57, -21990.90, 0.000, 0.000, 0.000, 10:40:38.676, 1583739638676
88, -25573.05, -30863.42, -19882.52, -15945.44, -19146.21, -20853.55, -23409.32, -22031.80, 0.000, 0.000, 0.000, 10:40:38.676, 1583739638676
89, -26080.95, -30904.64, -19984.40, -16044.86, -19733.06, -20902.41, -23659.79, -22297.00, 0.000, -0.020, 0.974, 10:40:38.676, 1583739638676
90, -26329.84, -30919.97, -20048.20, -16103.45, -20067.93, -20925.12, -23761.27, -22455.84, 0.000, 0.000, 0.000, 10:40:38.676, 1583739638676
91, -25984.53, -30883.81, -19993.23, -16046.25, -19707.71, -20896.67, -23572.86, -22295.02, 0.000, 0.000, 0.000, 10:40:38.676, 1583739638676
92, -25415.34, -30827.66, -19879.35, -15960.75, -19089.10, -20860.57, -23309.00, -21999.21, 0.000, 0.000, 0.000, 10:40:38.677, 1583739638677
93, -25577.59, -30882.87, -19893.37, -15946.34, -19153.81, -20856.46, -23417.86, -22035.82, 0.000, 0.000, 0.000, 10:40:38.680, 1583739638680
94, -26091.77, -30935.46, -19990.64, -16042.16, -19733.64, -20902.61, -23663.81, -22298.08, 0.000, 0.000, 0.000, 10:40:38.680, 1583739638680
95, -26336.23, -30942.10, -20052.46, -16106.58, -20066.59, -20926.96, -23763.57, -22457.15, 0.000, 0.000, 0.000, 10:40:38.680, 1583739638680
96, -25998.50, -30900.75, -19998.08, -16055.53, -19713.25, -20903.26, -23581.58, -22304.43, 0.000, 0.000, 0.000, 10:40:38.680, 1583739638680
97, -25432.19, -30842.54, -19882.12, -15966.92, -19094.51, -20867.39, -23317.70, -22010.86, 0.000, 0.000, 0.000, 10:40:38.680, 1583739638680
98, -25585.50, -30876.88, -19897.03, -15946.94, -19155.24, -20861.35, -23422.71, -22044.72, 0.000, 0.000, 0.000, 10:40:38.681, 1583739638681
99, -26090.03, -30926.70, -19999.24, -16044.91, -19735.40, -20908.22, -23668.98, -22307.26, 0.002, -0.020, 0.976, 10:40:38.681, 1583739638681
100, -26334.80, -30929.18, -20064.45, -16114.74, -20073.25, -20937.48, -23771.77, -22469.25, 0.000, 0.000, 0.000, 10:40:38.681, 1583739638681
101, -26002.19, -30883.70, -20005.12, -16059.84, -19721.26, -20910.86, -23588.78, -22313.81, 0.000, 0.000, 0.000, 10:40:38.681, 1583739638681
102, -25436.24, -30834.50, -19878.68, -15961.18, -19091.67, -20865.73, -23316.02, -22009.96, 0.000, 0.000, 0.000, 10:40:38.681, 1583739638681
103, -25580.21, -30881.26, -19884.76, -15944.75, -19144.98, -20858.11, -23415.71, -22039.58, 0.000, 0.000, 0.000, 10:40:38.681, 1583739638681
104, -26091.01, -30934.19, -19990.19, -16046.81, -19726.08, -20910.57, -23663.75, -22303.55, 0.000, 0.000, 0.000, 10:40:38.682, 1583739638682
105, -26336.77, -30934.37, -20056.13, -16110.22, -20066.41, -20935.13, -23765.47, -22463.03, 0.000, 0.000, 0.000, 10:40:38.682, 1583739638682
106, -26006.23, -30873.90, -20003.36, -16051.61, -19722.62, -20904.29, -23585.38, -22309.79, 0.000, 0.000, 0.000, 10:40:38.682, 1583739638682
107, -25436.37, -30843.66, -19890.44, -15966.32, -19103.97, -20867.86, -23321.27, -22014.21, 0.000, 0.000, 0.000, 10:40:38.682, 1583739638682
108, -25584.57, -30894.71, -19904.99, -15958.92, -19156.05, -20867.19, -23425.34, -22048.36, 0.000, 0.000, 0.000, 10:40:38.682, 1583739638682
109, -26083.86, -30929.70, -19993.05, -16039.16, -19722.87, -20904.07, -23663.59, -22299.55, 0.002, -0.018, 0.976, 10:40:38.682, 1583739638682
110, -26325.93, -30934.66, -20051.55, -16097.01, -20059.37, -20923.94, -23761.51, -22454.32, 0.000, 0.000, 0.000, 10:40:38.682, 1583739638682
111, -26002.74, -30896.50, -19992.56, -16037.64, -19716.07, -20890.68, -23578.09, -22300.54, 0.000, 0.000, 0.000, 10:40:38.683, 1583739638683
112, -25433.31, -30835.06, -19881.41, -15955.79, -19097.73, -20857.78, -23313.79, -22006.88, 0.000, 0.000, 0.000, 10:40:38.683, 1583739638683
113, -25570.91, -30868.70, -19895.27, -15944.97, -19146.26, -20854.76, -23415.35, -22035.71, 0.000, 0.000, 0.000, 10:40:38.683, 1583739638683
114, -26078.09, -30925.96, -19993.43, -16040.71, -19721.08, -20900.94, -23660.64, -22295.15, 0.000, 0.000, 0.000, 10:40:38.683, 1583739638683
115, -26326.98, -30937.76, -20057.31, -16111.56, -20066.37, -20928.79, -23765.69, -22458.52, 0.000, 0.000, 0.000, 10:40:38.683, 1583739638683
116, -26014.46, -30878.78, -20003.74, -16053.49, -19730.00, -20897.25, -23587.84, -22308.69, 0.000, 0.000, 0.000, 10:40:38.683, 1583739638683
117, -25441.25, -30833.02, -19888.29, -15965.07, -19107.14, -20862.13, -23319.75, -22014.77, 0.000, 0.000, 0.000, 10:40:38.683, 1583739638683
118, -25582.35, -30889.48, -19902.69, -15954.74, -19155.06, -20863.16, -23421.99, -22047.00, 0.000, 0.000, 0.000, 10:40:38.683, 1583739638683
119, -26085.40, -30941.21, -19999.60, -16045.02, -19729.53, -20909.07, -23667.23, -22304.85, 0.008, -0.020, 0.972, 10:40:38.683, 1583739638683
120, -26330.29, -30941.79, -20061.34, -16112.41, -20072.00, -20934.98, -23768.71, -22465.36, 0.000, 0.000, 0.000, 10:40:38.684, 1583739638684
121, -26018.81, -30898.54, -19999.65, -16059.12, -19736.05, -20904.45, -23590.34, -22318.46, 0.000, 0.000, 0.000, 10:40:39.122, 1583739639122
122, -25441.85, -30835.33, -19882.81, -15971.26, -19110.83, -20865.51, -23320.51, -22020.56, 0.000, 0.000, 0.000, 10:40:39.123, 1583739639123
123, -25572.36, -30874.22, -19894.93, -15948.28, -19147.33, -20854.78, -23416.85, -22040.41, 0.000, 0.000, 0.000, 10:40:39.123, 1583739639123
124, -26081.33, -30929.72, -19994.13, -16039.23, -19719.92, -20901.92, -23663.61, -22297.52, 0.000, 0.000, 0.000, 10:40:39.123, 1583739639123
125, -26330.00, -30933.63, -20058.46, -16109.62, -20069.47, -20930.82, -23768.53, -22460.46, 0.000, 0.000, 0.000, 10:40:39.123, 1583739639123
126, -26016.74, -30885.28, -20002.13, -16051.32, -19741.93, -20897.63, -23593.49, -22314.51, 0.000, 0.000, 0.000, 10:40:39.123, 1583739639123
127, -25443.01, -30838.77, -19880.96, -15955.05, -19112.30, -20854.87, -23319.80, -22012.42, 0.000, 0.000, 0.000, 10:40:39.124, 1583739639124
128, -25561.41, -30869.37, -19891.06, -15940.95, -19142.82, -20850.69, -23414.01, -22034.88, 0.000, 0.000, 0.000, 10:40:39.124, 1583739639124
129, -26065.15, -30920.53, -19991.11, -16040.04, -19715.58, -20898.63, -23657.85, -22292.67, 0.008, -0.018, 0.970, 10:40:39.124, 1583739639124
130, -26328.43, -30938.26, -20051.95, -16105.04, -20060.78, -20922.37, -23758.58, -22452.73, 0.000, 0.000, 0.000, 10:40:39.125, 1583739639125
131, -26024.16, -30899.99, -19997.57, -16046.18, -19737.37, -20890.21, -23587.28, -22309.70, 0.000, 0.000, 0.000, 10:40:39.125, 1583739639125
132, -25441.85, -30833.85, -19880.63, -15958.16, -19110.18, -20851.27, -23315.42, -22009.27, 0.000, 0.000, 0.000, 10:40:39.133, 1583739639133
133, -25558.53, -30862.42, -19889.72, -15942.83, -19136.74, -20846.98, -23406.61, -22029.92, 0.000, 0.000, 0.000, 10:40:39.133, 1583739639133
134, -26061.31, -30917.54, -19994.17, -16040.53, -19714.04, -20900.71, -23657.29, -22292.15, 0.000, 0.000, 0.000, 10:40:39.133, 1583739639133
135, -26323.22, -30929.31, -20057.40, -16111.25, -20071.55, -20931.36, -23764.87, -22458.50, 0.000, 0.000, 0.000, 10:40:39.133, 1583739639133
136, -26026.50, -30894.83, -19999.04, -16054.68, -19755.19, -20899.82, -23596.33, -22319.49, 0.000, 0.000, 0.000, 10:40:39.133, 1583739639133
137, -25447.73, -30836.85, -19882.26, -15963.71, -19124.80, -20859.59, -23321.99, -22018.39, 0.000, 0.000, 0.000, 10:40:39.133, 1583739639133
138, -25562.44, -30868.52, -19889.30, -15944.26, -19140.49, -20850.58, -23409.05, -22032.85, 0.000, 0.000, 0.000, 10:40:39.133, 1583739639133
139, -26059.12, -30919.99, -19985.74, -16032.55, -19704.45, -20892.20, -23650.58, -22284.82, 0.000, -0.014, 0.972, 10:40:39.134, 1583739639134
140, -26314.02, -30926.72, -20046.97, -16100.72, -20060.78, -20917.07, -23755.79, -22448.30, 0.000, 0.000, 0.000, 10:40:39.134, 1583739639134
141, -26027.06, -30885.71, -20004.05, -16053.56, -19757.24, -20895.33, -23599.35, -22319.56, 0.000, 0.000, 0.000, 10:40:39.134, 1583739639134
142, -25448.62, -30827.48, -19886.17, -15960.53, -19128.38, -20856.17, -23325.86, -22019.42, 0.000, 0.000, 0.000, 10:40:39.134, 1583739639134
143, -25548.96, -30869.41, -19893.14, -15943.97, -19141.18, -20852.66, -23411.31, -22034.95, 0.000, 0.000, 0.000, 10:40:39.134, 1583739639134
144, -26052.37, -30917.42, -19985.86, -16036.75, -19702.55, -20897.20, -23652.10, -22288.76, 0.000, 0.000, 0.000, 10:40:39.134, 1583739639134
145, -26316.74, -30937.41, -20045.20, -16100.61, -20060.49, -20921.86, -23759.05, -22455.21, 0.000, 0.000, 0.000, 10:40:39.134, 1583739639134
146, -26030.37, -30896.08, -19998.57, -16049.31, -19758.18, -20895.55, -23599.33, -22325.12, 0.000, 0.000, 0.000, 10:40:39.135, 1583739639135
147, -25454.93, -30839.84, -19884.00, -15965.74, -19128.98, -20861.49, -23325.18, -22027.20, 0.000, 0.000, 0.000, 10:40:39.135, 1583739639135
148, -25554.84, -30876.32, -19893.70, -15950.72, -19137.79, -20856.05, -23407.24, -22039.40, 0.000, 0.000, 0.000, 10:40:39.135, 1583739639135
149, -26050.96, -30914.16, -19986.66, -16032.55, -19696.24, -20895.08, -23645.13, -22287.17, -0.002, -0.018, 0.972, 10:40:39.135, 1583739639135
150, -26313.86, -30917.76, -20048.71, -16096.25, -20059.10, -20919.98, -23754.07, -22451.23, 0.000, 0.000, 0.000, 10:40:39.135, 1583739639135
151, -26025.28, -30885.79, -20000.07, -16044.48, -19760.86, -20891.66, -23595.82, -22321.37, 0.000, 0.000, 0.000, 10:40:39.136, 1583739639136
152, -25448.91, -30835.33, -19882.59, -15956.11, -19129.76, -20856.03, -23323.69, -22023.78, 0.000, 0.000, 0.000, 10:40:39.136, 1583739639136
153, -25552.89, -30882.11, -19889.77, -15942.60, -19132.24, -20855.38, -23408.18, -22036.74, 0.000, 0.000, 0.000, 10:40:39.136, 1583739639136
154, -26051.43, -30916.28, -19983.73, -16037.13, -19693.45, -20900.91, -23647.05, -22288.47, 0.000, 0.000, 0.000, 10:40:39.136, 1583739639136
155, -26313.95, -30925.00, -20052.44, -16110.11, -20062.43, -20929.66, -23757.98, -22457.67, 0.000, 0.000, 0.000, 10:40:39.136, 1583739639136
156, -26035.65, -30898.69, -20004.16, -16050.52, -19768.11, -20895.86, -23599.91, -22327.43, 0.000, 0.000, 0.000, 10:40:39.136, 1583739639136
157, -25457.61, -30843.75, -19889.68, -15964.75, -19135.91, -20859.92, -23327.15, -22029.28, 0.000, 0.000, 0.000, 10:40:39.137, 1583739639137
158, -25545.90, -30871.09, -19891.42, -15945.85, -19130.81, -20853.86, -23404.22, -22035.15, 0.000, 0.000, 0.000, 10:40:39.137, 1583739639137
159, -26045.86, -30916.19, -19982.28, -16034.02, -19688.00, -20896.67, -23644.05, -22285.36, 0.000, 0.000, 0.000, 10:40:39.137, 1583739639137
160, -26309.05, -30913.40, -20047.97, -16105.91, -20058.99, -20925.72, -23754.20, -22453.42, 0.002, -0.020, 0.972, 10:40:39.137, 1583739639137
161, -26033.01, -30886.71, -19998.73, -16047.21, -19765.65, -20891.95, -23596.29, -22322.78, 0.000, 0.000, 0.000, 10:40:39.138, 1583739639138
162, -25462.26, -30837.25, -19883.57, -15955.95, -19132.22, -20853.66, -23324.09, -22023.08, 0.000, 0.000, 0.000, 10:40:39.138, 1583739639138
163, -25550.57, -30871.09, -19888.74, -15936.57, -19124.80, -20846.96, -23401.92, -22027.55, 0.000, 0.000, 0.000, 10:40:39.138, 1583739639138
164, -26052.95, -30916.96, -19975.80, -16023.38, -19678.97, -20887.91, -23641.01, -22276.11, 0.000, 0.000, 0.000, 10:40:39.138, 1583739639138
165, -26319.56, -30923.68, -20036.71, -16091.22, -20045.74, -20913.12, -23749.06, -22441.84, 0.000, 0.000, 0.000, 10:40:39.138, 1583739639138
166, -26049.26, -30897.64, -19993.90, -16040.93, -19760.24, -20884.33, -23595.91, -22317.95, 0.000, 0.000, 0.000, 10:40:39.139, 1583739639139
167, -25458.66, -30838.50, -19873.09, -15955.93, -19121.78, -20847.61, -23319.71, -22017.88, 0.000, 0.000, 0.000, 10:40:39.139, 1583739639139
168, -25538.70, -30868.61, -19874.41, -15938.80, -19109.76, -20843.34, -23393.78, -22020.65, 0.000, 0.000, 0.000, 10:40:39.139, 1583739639139
169, -26043.36, -30922.05, -19977.61, -16027.94, -19673.58, -20890.48, -23644.97, -22275.50, 0.000, 0.000, 0.000, 10:40:39.139, 1583739639139
170, -26309.05, -30919.14, -20040.17, -16089.50, -20044.98, -20911.24, -23753.31, -22440.35, 0.002, -0.024, 0.972, 10:40:39.139, 1583739639139
171, -26046.60, -30886.13, -19993.08, -16041.38, -19764.31, -20882.47, -23600.56, -22319.49, 0.000, 0.000, 0.000, 10:40:39.140, 1583739639140
172, -25457.99, -30828.73, -19870.59, -15953.62, -19124.73, -20844.21, -23319.96, -22017.65, 0.000, 0.000, 0.000, 10:40:39.140, 1583739639140
173, -25536.71, -30860.67, -19876.38, -15935.59, -19106.99, -20841.44, -23393.96, -22020.07, 0.000, 0.000, 0.000, 10:40:39.140, 1583739639140
174, -26045.75, -30924.67, -19971.75, -16020.03, -19664.46, -20885.49, -23641.19, -22273.94, 0.000, 0.000, 0.000, 10:40:39.140, 1583739639140
175, -26314.35, -30930.72, -20030.83, -16085.28, -20037.87, -20908.40, -23749.69, -22440.79, 0.000, 0.000, 0.000, 10:40:39.140, 1583739639140
176, -26044.30, -30890.98, -19986.59, -16037.06, -19761.45, -20879.90, -23598.90, -22321.05, 0.000, 0.000, 0.000, 10:40:39.140, 1583739639140
177, -25467.26, -30831.32, -19870.34, -15950.18, -19127.06, -20844.92, -23319.66, -22021.18, 0.000, 0.000, 0.000, 10:40:39.141, 1583739639141
178, -25541.47, -30863.18, -19875.62, -15938.00, -19108.08, -20845.57, -23394.59, -22023.75, 0.000, 0.000, 0.000, 10:40:39.141, 1583739639141
179, -26039.09, -30916.96, -19975.13, -16030.36, -19667.01, -20894.05, -23643.50, -22276.91, 0.000, 0.000, 0.000, 10:40:39.141, 1583739639141
180, -26309.21, -30925.80, -20039.48, -16098.02, -20045.47, -20920.20, -23754.67, -22446.98, 0.006, -0.026, 0.970, 10:40:39.141, 1583739639141
181, -26054.56, -30889.93, -19993.90, -16042.38, -19774.14, -20888.06, -23606.91, -22329.46, 0.000, 0.000, 0.000, 10:40:39.141, 1583739639141
182, -25472.03, -30839.04, -19877.67, -15952.62, -19138.08, -20850.29, -23329.77, -22027.64, 0.000, 0.000, 0.000, 10:40:39.142, 1583739639142
183, -25537.25, -30866.46, -19876.67, -15929.66, -19105.18, -20841.86, -23392.53, -22018.63, 0.000, 0.000, 0.000, 10:40:39.142, 1583739639142
184, -26031.18, -30907.03, -19969.47, -16016.16, -19656.82, -20882.99, -23633.73, -22265.78, 0.000, 0.000, 0.000, 10:40:39.142, 1583739639142
185, -26313.43, -30928.89, -20041.49, -16097.68, -20046.72, -20920.36, -23755.86, -22446.83, 0.000, 0.000, 0.000, 10:40:39.142, 1583739639142
186, -26061.93, -30893.96, -20000.50, -16048.42, -19782.77, -20892.71, -23611.76, -22332.90, 0.000, 0.000, 0.000, 10:40:39.142, 1583739639142
187, -25469.68, -30835.66, -19884.71, -15960.37, -19145.25, -20855.14, -23334.04, -22031.09, 0.000, 0.000, 0.000, 10:40:39.143, 1583739639143
188, -25531.79, -30863.40, -19878.32, -15937.49, -19103.66, -20846.55, -23396.02, -22020.31, 0.000, 0.000, 0.000, 10:40:39.143, 1583739639143
189, -26032.14, -30905.40, -19968.98, -16021.19, -19651.72, -20884.98, -23635.27, -22264.33, 0.000, 0.000, 0.000, 10:40:39.143, 1583739639143
190, -26312.58, -30936.06, -20030.69, -16086.15, -20033.15, -20908.02, -23747.03, -22434.80, 0.004, -0.022, 0.974, 10:40:39.143, 1583739639143
191, -26071.90, -30906.25, -19992.21, -16041.02, -19776.42, -20883.30, -23608.92, -22327.25, 0.000, 0.000, 0.000, 10:40:39.144, 1583739639144
192, -25486.60, -30847.13, -19883.62, -15965.52, -19142.53, -20855.34, -23335.42, -22033.72, 0.000, 0.000, 0.000, 10:40:39.144, 1583739639144
193, -25534.72, -30869.97, -19875.26, -15927.76, -19093.62, -20838.04, -23389.94, -22015.73, 0.000, 0.000, 0.000, 10:40:39.144, 1583739639144
194, -26030.04, -30918.52, -19964.55, -16004.43, -19642.64, -20873.38, -23629.53, -22258.51, 0.000, 0.000, 0.000, 10:40:39.144, 1583739639144
195, -26318.75, -30932.15, -20034.49, -16086.15, -20034.96, -20908.74, -23749.20, -22438.07, 0.000, 0.000, 0.000, 10:40:39.144, 1583739639144
196, -26080.75, -30906.67, -19997.01, -16043.25, -19783.77, -20887.39, -23613.79, -22335.20, 0.000, 0.000, 0.000, 10:40:39.144, 1583739639144
197, -25488.59, -30846.46, -19883.44, -15958.83, -19144.98, -20852.66, -23334.44, -22034.88, 0.000, 0.000, 0.000, 10:40:39.145, 1583739639145
198, -25535.44, -30860.79, -19874.59, -15931.56, -19093.75, -20839.96, -23389.80, -22014.88, 0.000, 0.000, 0.000, 10:40:39.145, 1583739639145
199, -26037.28, -30918.07, -19968.96, -16012.50, -19642.44, -20878.58, -23634.00, -22259.25, 0.000, 0.000, 0.000, 10:40:39.145, 1583739639145
200, -26320.23, -30937.65, -20042.16, -16094.28, -20038.07, -20913.34, -23757.09, -22440.79, 0.008, -0.020, 0.968, 10:40:39.145, 1583739639145
201, -26084.96, -30904.50, -20002.02, -16046.23, -19787.46, -20884.80, -23619.60, -22334.80, 0.000, 0.000, 0.000, 10:40:39.145, 1583739639145
202, -25492.97, -30839.97, -19882.05, -15951.30, -19145.97, -20844.95, -23334.13, -22030.64, 0.000, 0.000, 0.000, 10:40:39.145, 1583739639145
203, -25536.04, -30864.88, -19880.89, -15931.23, -19094.13, -20842.89, -23389.51, -22017.74, 0.000, 0.000, 0.000, 10:40:39.146, 1583739639146
204, -26030.77, -30923.64, -19970.46, -16014.06, -19640.50, -20883.19, -23629.91, -22263.32, 0.000, 0.000, 0.000, 10:40:39.146, 1583739639146
205, -26320.32, -30939.66, -20035.86, -16095.29, -20032.39, -20917.46, -23749.20, -22446.89, 0.000, 0.000, 0.000, 10:40:39.146, 1583739639146
206, -26087.44, -30907.59, -19992.47, -16046.38, -19780.44, -20887.46, -23607.96, -22340.70, 0.000, 0.000, 0.000, 10:40:39.146, 1583739639146
207, -25495.29, -30841.09, -19867.88, -15945.67, -19135.39, -20841.59, -23321.27, -22031.11, 0.000, 0.000, 0.000, 10:40:39.146, 1583739639146
208, -25529.54, -30870.51, -19860.04, -15921.26, -19074.58, -20832.32, -23372.10, -22009.31, 0.000, 0.000, 0.000, 10:40:39.146, 1583739639146
209, -26020.80, -30915.35, -19960.26, -16012.83, -19625.41, -20880.55, -23620.23, -22260.10, 0.000, 0.000, 0.000, 10:40:39.147, 1583739639147
210, -26311.33, -30923.19, -20040.80, -16101.32, -20031.39, -20921.48, -23748.88, -22448.50, 0.006, -0.026, 0.968, 10:40:39.147, 1583739639147
211, -26093.43, -30899.52, -20007.63, -16056.93, -19794.95, -20896.06, -23618.17, -22347.81, 0.000, 0.000, 0.000, 10:40:39.147, 1583739639147
212, -25496.05, -30846.05, -19885.50, -15962.52, -19154.17, -20853.93, -23331.71, -22040.63, 0.000, 0.000, 0.000, 10:40:39.147, 1583739639147
213, -25526.52, -30878.62, -19876.89, -15933.13, -19089.42, -20842.40, -23383.70, -22016.78, 0.000, 0.000, 0.000, 10:40:39.148, 1583739639148
214, -26022.55, -30922.34, -19968.73, -16008.74, -19630.84, -20878.36, -23626.51, -22256.35, 0.000, 0.000, 0.000, 10:40:39.148, 1583739639148
215, -26312.00, -30927.86, -20040.71, -16091.38, -20030.18, -20913.01, -23747.77, -22438.27, 0.000, 0.000, 0.000, 10:40:39.148, 1583739639148
216, -26090.12, -30895.27, -20004.07, -16048.98, -19796.54, -20885.85, -23615.33, -22338.58, 0.000, 0.000, 0.000, 10:40:39.148, 1583739639148
217, -25497.21, -30850.23, -19884.47, -15953.22, -19152.40, -20843.92, -23329.48, -22029.70, 0.000, 0.000, 0.000, 10:40:39.148, 1583739639148
218, -25525.36, -30881.44, -19880.76, -15931.12, -19087.45, -20840.92, -23381.76, -22009.70, 0.000, 0.000, 0.000, 10:40:39.149, 1583739639149
219, -26016.36, -30925.56, -19977.14, -16017.51, -19633.19, -20884.35, -23626.17, -22254.78, 0.000, 0.000, 0.000, 10:40:39.149, 1583739639149
220, -26302.48, -30930.01, -20046.03, -16093.39, -20034.02, -20915.33, -23745.91, -22434.31, 0.002, -0.022, 0.966, 10:40:39.149, 1583739639149
221, -26085.36, -30898.18, -20012.01, -16054.90, -19803.47, -20893.67, -23618.98, -22341.44, 0.000, 0.000, 0.000, 10:40:39.149, 1583739639149
222, -25490.76, -30841.25, -19897.63, -15971.97, -19164.72, -20861.29, -23337.84, -22042.33, 0.000, 0.000, 0.000, 10:40:39.149, 1583739639149
223, -25510.69, -30866.06, -19891.02, -15944.24, -19089.89, -20852.43, -23380.64, -22013.16, 0.000, 0.000, 0.000, 10:40:39.149, 1583739639149
224, -26009.18, -30916.35, -19986.84, -16025.69, -19630.08, -20893.72, -23628.63, -22257.49, 0.000, 0.000, 0.000, 10:40:39.150, 1583739639150
225, -26297.41, -30923.93, -20045.51, -16092.25, -20029.71, -20916.70, -23749.53, -22434.49, 0.000, 0.000, 0.000, 10:40:39.150, 1583739639150
226, -26086.56, -30897.31, -20002.66, -16046.21, -19804.56, -20889.27, -23622.51, -22341.04, 0.000, 0.000, 0.000, 10:40:39.150, 1583739639150
227, -25488.12, -30848.11, -19887.46, -15959.41, -19164.92, -20856.46, -23341.50, -22041.14, 0.000, 0.000, 0.000, 10:40:39.150, 1583739639150
228, -25509.93, -30864.05, -19880.07, -15930.94, -19084.28, -20848.01, -23386.72, -22012.73, 0.000, 0.000, 0.000, 10:40:39.150, 1583739639150
229, -26016.85, -30928.13, -19979.26, -16015.63, -19631.92, -20892.06, -23639.20, -22261.31, 0.000, 0.000, 0.000, 10:40:39.151, 1583739639151
230, -26307.24, -30943.55, -20050.05, -16097.39, -20040.60, -20924.90, -23760.66, -22444.26, 0.002, -0.022, 0.968, 10:40:39.151, 1583739639151
231, -26098.92, -30912.39, -20017.82, -16058.19, -19822.58, -20901.32, -23635.70, -22353.82, 0.000, 0.000, 0.000, 10:40:39.151, 1583739639151
232, -25506.04, -30850.41, -19895.78, -15964.31, -19175.29, -20860.70, -23348.92, -22049.12, 0.000, 0.000, 0.000, 10:40:39.151, 1583739639151
233, -25517.29, -30879.09, -19884.60, -15938.22, -19089.60, -20852.41, -23389.71, -22019.57, 0.000, 0.000, 0.000, 10:40:39.151, 1583739639151
234, -26015.11, -30938.59, -19979.93, -16023.79, -19630.91, -20895.44, -23635.34, -22264.62, 0.000, 0.000, 0.000, 10:40:39.151, 1583739639151
235, -26312.65, -30949.95, -20050.99, -16103.74, -20042.52, -20929.37, -23761.04, -22449.62, 0.000, 0.000, 0.000, 10:40:39.152, 1583739639152
236, -26109.85, -30922.63, -20013.46, -16056.20, -19827.99, -20901.27, -23639.96, -22361.11, 0.000, 0.000, 0.000, 10:40:39.152, 1583739639152
237, -25512.48, -30848.71, -19892.40, -15960.71, -19183.59, -20859.21, -23352.52, -22054.29, 0.000, 0.000, 0.000, 10:40:39.152, 1583739639152
238, -25515.97, -30880.25, -19886.30, -15932.68, -19092.28, -20850.98, -23390.68, -22020.29, 0.000, 0.000, 0.000, 10:40:39.152, 1583739639152
239, -26012.09, -30931.04, -19982.37, -16016.97, -19632.19, -20891.93, -23637.10, -22263.72, 0.000, 0.000, 0.000, 10:40:39.153, 1583739639153
240, -26309.77, -30932.22, -20051.32, -16101.55, -20040.71, -20925.08, -23760.51, -22448.68, 0.000, -0.020, 0.966, 10:40:39.153, 1583739639153
241, -26105.81, -30909.09, -20018.78, -16056.58, -19827.49, -20896.31, -23637.95, -22358.83, 0.000, 0.000, 0.000, 10:40:39.602, 1583739639602
242, -25501.64, -30844.76, -19890.71, -15959.46, -19177.66, -20851.09, -23345.97, -22049.55, 0.000, 0.000, 0.000, 10:40:39.602, 1583739639602
243, -25506.07, -30872.47, -19877.09, -15927.81, -19079.31, -20838.71, -23378.11, -22008.24, 0.000, 0.000, 0.000, 10:40:39.602, 1583739639602
244, -26003.75, -30929.29, -19970.21, -16009.88, -19612.85, -20879.08, -23625.08, -22249.02, 0.000, 0.000, 0.000, 10:40:39.602, 1583739639602
245, -26297.74, -30944.22, -20046.18, -16106.31, -20034.22, -20921.39, -23757.04, -22440.61, 0.000, 0.000, 0.000, 10:40:39.603, 1583739639603
246, -26109.07, -30920.93, -20019.74, -16072.36, -19836.48, -20903.02, -23644.84, -22362.96, 0.000, 0.000, 0.000, 10:40:39.603, 1583739639603
247, -25506.76, -30848.11, -19893.01, -15970.25, -19184.57, -20855.07, -23350.67, -22050.60, 0.000, 0.000, 0.000, 10:40:39.604, 1583739639604
248, -25494.22, -30865.99, -19869.43, -15926.71, -19070.04, -20836.23, -23372.53, -22001.74, 0.000, 0.000, 0.000, 10:40:39.604, 1583739639604
249, -25988.53, -30920.11, -19962.39, -16005.39, -19602.30, -20876.91, -23617.28, -22242.00, 0.000, 0.000, 0.000, 10:40:39.604, 1583739639604
250, -26297.43, -30933.34, -20039.37, -16095.42, -20023.38, -20918.37, -23749.76, -22433.48, 0.000, 0.000, 0.000, 10:40:39.604, 1583739639604
251, -26112.13, -30897.20, -20010.80, -16062.75, -19827.54, -20899.84, -23637.80, -22358.99, 0.006, -0.020, 0.960, 10:40:39.604, 1583739639604
252, -25514.22, -30843.69, -19891.55, -15972.71, -19184.72, -20860.48, -23347.94, -22056.14, 0.000, 0.000, 0.000, 10:40:39.604, 1583739639604
253, -25502.96, -30884.05, -19875.93, -15937.55, -19071.65, -20847.47, -23374.36, -22011.64, 0.000, 0.000, 0.000, 10:40:39.610, 1583739639610
254, -25993.94, -30930.16, -19970.03, -16015.18, -19604.29, -20886.18, -23621.10, -22250.69, 0.000, 0.000, 0.000, 10:40:39.611, 1583739639611
255, -26292.74, -30933.29, -20047.37, -16104.63, -20029.84, -20924.45, -23754.52, -22440.64, 0.000, 0.000, 0.000, 10:40:39.611, 1583739639611
0, -26106.46, -30903.54, -20018.13, -16065.00, -19840.53, -20902.32, -23645.31, -22363.34, 0.000, 0.000, 0.000, 10:40:39.611, 1583739639611
1, -25511.77, -30845.21, -19892.05, -15965.60, -19193.89, -20858.87, -23353.33, -22057.06, 0.000, 0.000, 0.000, 10:40:39.611, 1583739639611
2, -25493.93, -30871.04, -19874.39, -15930.62, -19074.46, -20843.58, -23376.26, -22007.13, 0.000, 0.000, 0.000, 10:40:39.611, 1583739639611
3, -25990.38, -30930.95, -19971.80, -16014.93, -19610.23, -20887.62, -23626.53, -22251.03, 0.000, 0.000, 0.000, 10:40:39.612, 1583739639612
4, -26284.42, -30935.62, -20038.85, -16090.39, -20026.98, -20917.81, -23753.51, -22436.70, 0.000, 0.000, 0.000, 10:40:39.612, 1583739639612
5, -26114.59, -30902.00, -20008.88, -16052.35, -19834.36, -20892.49, -23642.78, -22359.39, 0.000, -0.020, 0.962, 10:40:39.612, 1583739639612
6, -25519.03, -30835.91, -19889.27, -15961.40, -19190.51, -20850.64, -23352.01, -22053.33, 0.000, 0.000, 0.000, 10:40:39.612, 1583739639612
7, -25492.37, -30871.58, -19873.83, -15926.51, -19068.05, -20836.83, -23374.04, -22002.43, 0.000, 0.000, 0.000, 10:40:39.612, 1583739639612
8, -25983.68, -30920.64, -19968.96, -16005.91, -19595.93, -20877.80, -23622.20, -22242.53, 0.000, 0.000, 0.000, 10:40:39.612, 1583739639612
9, -26295.73, -30933.29, -20046.85, -16095.49, -20025.11, -20919.53, -23757.04, -22437.06, 0.000, 0.000, 0.000, 10:40:39.612, 1583739639612
10, -26120.16, -30906.90, -20013.46, -16047.37, -19838.38, -20889.92, -23644.23, -22359.79, 0.000, 0.000, 0.000, 10:40:39.612, 1583739639612
11, -25518.79, -30846.88, -19891.62, -15956.17, -19193.51, -20851.32, -23353.82, -22058.51, 0.000, 0.000, 0.000, 10:40:39.613, 1583739639613
12, -25488.86, -30867.27, -19873.11, -15924.97, -19065.70, -20841.41, -23374.27, -22008.31, 0.000, 0.000, 0.000, 10:40:39.613, 1583739639613
13, -25982.56, -30919.44, -19967.97, -16006.13, -19593.07, -20884.11, -23621.14, -22247.94, 0.000, 0.000, 0.000, 10:40:39.613, 1583739639613
14, -26285.11, -30923.10, -20041.51, -16094.75, -20020.23, -20922.08, -23749.89, -22439.00, 0.000, 0.000, 0.000, 10:40:39.613, 1583739639613
15, -26112.45, -30902.67, -20006.98, -16056.60, -19838.42, -20898.28, -23639.74, -22365.63, 0.000, -0.020, 0.972, 10:40:39.613, 1583739639613
16, -25518.36, -30843.42, -19888.60, -15965.78, -19196.59, -20860.79, -23352.79, -22063.21, 0.000, 0.000, 0.000, 10:40:39.613, 1583739639613
17, -25481.41, -30860.52, -19867.50, -15929.80, -19061.14, -20846.13, -23368.05, -22006.57, 0.000, 0.000, 0.000, 10:40:39.613, 1583739639613
18, -25974.25, -30923.12, -19962.65, -16011.16, -19586.77, -20886.36, -23614.15, -22243.90, 0.000, 0.000, 0.000, 10:40:39.613, 1583739639613
19, -26277.98, -30929.18, -20034.00, -16096.29, -20015.79, -20922.19, -23743.32, -22432.77, 0.000, 0.000, 0.000, 10:40:39.613, 1583739639613
20, -26118.97, -30891.47, -20008.19, -16058.66, -19842.58, -20898.52, -23638.96, -22362.34, 0.000, 0.000, 0.000, 10:40:39.614, 1583739639614
21, -25525.89, -30838.92, -19885.09, -15957.69, -19194.98, -20850.51, -23347.98, -22052.81, 0.000, 0.000, 0.000, 10:40:39.614, 1583739639614
22, -25485.32, -30868.76, -19867.21, -15927.41, -19054.24, -20839.80, -23365.93, -21995.28, 0.000, 0.000, 0.000, 10:40:39.614, 1583739639614
23, -25975.27, -30920.35, -19961.49, -16002.93, -19578.03, -20877.29, -23614.21, -22230.84, 0.000, 0.000, 0.000, 10:40:39.614, 1583739639614
24, -26288.02, -30925.09, -20032.24, -16074.86, -20009.26, -20906.01, -23745.87, -22416.92, 0.000, 0.000, 0.000, 10:40:39.614, 1583739639614
25, -26122.42, -30896.57, -20000.83, -16032.15, -19840.30, -20877.58, -23640.70, -22344.41, 0.004, -0.020, 0.970, 10:40:39.614, 1583739639614
26, -25522.94, -30836.00, -19881.61, -15945.73, -19197.94, -20840.19, -23350.04, -22043.38, 0.000, 0.000, 0.000, 10:40:39.615, 1583739639615
27, -25481.81, -30858.73, -19869.07, -15915.09, -19059.31, -20832.54, -23371.45, -21989.71, 0.000, 0.000, 0.000, 10:40:39.615, 1583739639615
28, -25975.39, -30917.78, -19960.20, -15990.82, -19578.21, -20870.90, -23618.75, -22225.72, 0.000, 0.000, 0.000, 10:40:39.615, 1583739639615
29, -26285.85, -30933.49, -20030.16, -16075.62, -20011.87, -20906.03, -23748.15, -22416.59, 0.000, 0.000, 0.000, 10:40:39.615, 1583739639615
30, -26129.93, -30903.99, -20009.10, -16044.95, -19851.84, -20886.79, -23649.31, -22356.75, 0.000, 0.000, 0.000, 10:40:39.615, 1583739639615
31, -25529.47, -30827.53, -19883.53, -15949.06, -19201.85, -20843.02, -23353.21, -22051.60, 0.000, 0.000, 0.000, 10:40:39.615, 1583739639615
32, -25476.99, -30863.76, -19864.89, -15914.02, -19052.45, -20831.65, -23363.18, -21990.88, 0.000, 0.000, 0.000, 10:40:39.616, 1583739639616
33, -25967.74, -30917.02, -19966.30, -15999.67, -19576.89, -20877.54, -23611.64, -22230.49, 0.000, 0.000, 0.000, 10:40:39.616, 1583739639616
34, -26281.76, -30921.34, -20043.35, -16096.47, -20019.07, -20921.03, -23748.19, -22429.68, 0.000, 0.000, 0.000, 10:40:39.616, 1583739639616
35, -26125.48, -30901.80, -20010.04, -16061.54, -19855.32, -20897.43, -23647.18, -22367.75, 0.004, -0.022, 0.972, 10:40:39.616, 1583739639616
36, -25531.03, -30844.45, -19889.72, -15969.70, -19209.67, -20858.67, -23356.21, -22067.41, 0.000, 0.000, 0.000, 10:40:39.616, 1583739639616
37, -25465.95, -30857.05, -19872.27, -15928.86, -19054.28, -20846.73, -23365.02, -22002.65, 0.000, 0.000, 0.000, 10:40:39.616, 1583739639616
38, -25953.32, -30910.56, -19958.68, -16002.26, -19565.67, -20884.55, -23608.45, -22234.73, 0.000, 0.000, 0.000, 10:40:39.616, 1583739639616
39, -26282.19, -30933.40, -20029.35, -16090.51, -20005.48, -20924.54, -23745.98, -22432.05, 0.000, 0.000, 0.000, 10:40:39.617, 1583739639617
40, -26131.80, -30902.89, -20008.79, -16052.96, -19856.78, -20899.95, -23651.27, -22369.87, 0.000, 0.000, 0.000, 10:40:39.617, 1583739639617
41, -25537.22, -30837.74, -19892.76, -15962.30, -19215.10, -20860.01, -23362.54, -22066.94, 0.000, 0.000, 0.000, 10:40:39.617, 1583739639617
42, -25470.66, -30862.64, -19868.67, -15921.64, -19050.26, -20843.00, -23365.78, -21994.70, 0.000, 0.000, 0.000, 10:40:39.617, 1583739639617
43, -25954.78, -30918.52, -19953.07, -15990.46, -19559.72, -20875.19, -23607.04, -22222.84, 0.000, 0.000, 0.000, 10:40:39.617, 1583739639617
44, -26274.16, -30922.79, -20025.73, -16081.21, -20001.14, -20912.87, -23740.17, -22418.49, 0.000, 0.000, 0.000, 10:40:39.617, 1583739639617
45, -26134.80, -30893.22, -20011.67, -16053.27, -19859.66, -20894.52, -23650.04, -22365.09, 0.004, -0.022, 0.978, 10:40:39.617, 1583739639617
46, -25540.87, -30847.62, -19896.94, -15960.22, -19220.60, -20854.02, -23361.30, -22064.05, 0.000, 0.000, 0.000, 10:40:39.617, 1583739639617
47, -25473.39, -30867.33, -19873.14, -15921.53, -19050.03, -20839.67, -23363.74, -21992.57, 0.000, 0.000, 0.000, 10:40:39.617, 1583739639617
48, -25964.01, -30911.97, -19964.00, -15997.79, -19563.41, -20878.96, -23612.31, -22227.45, 0.000, 0.000, 0.000, 10:40:39.618, 1583739639618
49, -26282.86, -30931.10, -20042.05, -16094.73, -20012.34, -20921.61, -23754.70, -22428.23, 0.000, 0.000, 0.000, 10:40:39.618, 1583739639618
50, -26136.77, -30908.48, -20018.76, -16059.33, -19869.52, -20895.06, -23662.23, -22370.38, 0.000, 0.000, 0.000, 10:40:39.618, 1583739639618
51, -25537.29, -30846.28, -19890.82, -15956.60, -19221.40, -20847.09, -23365.31, -22063.27, 0.000, 0.000, 0.000, 10:40:39.618, 1583739639618
52, -25456.98, -30861.41, -19862.68, -15915.72, -19043.57, -20831.94, -23358.73, -21986.03, 0.000, 0.000, 0.000, 10:40:39.618, 1583739639618
53, -25953.12, -30911.41, -19961.20, -16001.30, -19560.28, -20878.00, -23608.47, -22223.78, 0.000, 0.000, 0.000, 10:40:39.618, 1583739639618
54, -26278.30, -30924.22, -20039.10, -16090.51, -20010.78, -20918.15, -23749.62, -22424.05, 0.000, 0.000, 0.000, 10:40:39.618, 1583739639618
55, -26143.31, -30912.04, -20015.41, -16052.51, -19870.05, -20893.56, -23660.42, -22371.50, 0.006, -0.022, 0.976, 10:40:39.618, 1583739639618
56, -25550.61, -30850.90, -19893.88, -15961.76, -19228.69, -20853.53, -23367.32, -22072.19, 0.000, 0.000, 0.000, 10:40:39.619, 1583739639619
57, -25465.54, -30864.09, -19868.62, -15919.38, -19049.86, -20837.10, -23361.42, -21994.34, 0.000, 0.000, 0.000, 10:40:39.619, 1583739639619
58, -25954.71, -30921.38, -19958.47, -15994.68, -19557.04, -20876.53, -23607.60, -22228.18, 0.000, 0.000, 0.000, 10:40:39.619, 1583739639619
59, -26281.02, -30922.30, -20027.19, -16089.30, -20004.14, -20916.70, -23742.60, -22428.54, 0.000, 0.000, 0.000, 10:40:39.619, 1583739639619
60, -26149.35, -30906.70, -20010.09, -16058.07, -19874.03, -20896.51, -23657.85, -22378.92, 0.000, 0.000, 0.000, 10:40:39.619, 1583739639619
61, -25554.35, -30857.41, -19895.96, -15966.95, -19235.96, -20859.47, -23369.31, -22079.48, 0.000, 0.000, 0.000, 10:40:39.619, 1583739639619
62, -25466.55, -30874.78, -19869.34, -15926.09, -19047.87, -20844.65, -23362.22, -21999.86, 0.000, 0.000, 0.000, 10:40:39.620, 1583739639620
63, -25946.89, -30919.03, -19954.99, -15995.04, -19547.90, -20877.96, -23600.74, -22225.54, 0.000, 0.000, 0.000, 10:40:39.620, 1583739639620
64, -26272.84, -30932.80, -20034.56, -16092.47, -20005.68, -20921.84, -23741.26, -22429.04, 0.000, 0.000, 0.000, 10:40:39.620, 1583739639620
65, -26147.67, -30909.33, -20022.56, -16068.65, -19881.74, -20904.69, -23660.59, -22382.95, 0.000, -0.020, 0.974, 10:40:39.620, 1583739639620
66, -25559.42, -30851.91, -19907.96, -15979.22, -19243.29, -20864.91, -23373.46, -22082.81, 0.000, 0.000, 0.000, 10:40:39.620, 1583739639620
67, -25465.88, -30867.45, -19872.58, -15932.70, -19047.13, -20845.10, -23359.72, -21995.88, 0.000, 0.000, 0.000, 10:40:39.620, 1583739639620
68, -25943.56, -30922.16, -19955.05, -15998.13, -19545.77, -20877.98, -23602.57, -22221.68, 0.000, 0.000, 0.000, 10:40:39.621, 1583739639621
69, -26269.47, -30927.53, -20029.60, -16087.58, -20001.21, -20915.40, -23742.04, -22420.83, 0.000, 0.000, 0.000, 10:40:39.621, 1583739639621
70, -26161.06, -30911.93, -20023.77, -16072.60, -19889.86, -20904.22, -23667.90, -22383.60, 0.000, 0.000, 0.000, 10:40:39.621, 1583739639621
71, -25567.42, -30843.44, -19909.57, -15979.08, -19251.51, -20863.32, -23379.37, -22083.86, 0.000, 0.000, 0.000, 10:40:39.621, 1583739639621
72, -25464.36, -30863.53, -19875.66, -15926.04, -19048.40, -20839.89, -23361.42, -21990.81, 0.000, 0.000, 0.000, 10:40:39.621, 1583739639621
73, -25944.27, -30921.11, -19959.39, -15997.12, -19544.52, -20875.79, -23603.60, -22216.61, 0.000, 0.000, 0.000, 10:40:39.621, 1583739639621
74, -26273.85, -30925.74, -20031.77, -16085.48, -20002.22, -20913.86, -23743.70, -22417.93, 0.000, 0.000, 0.000, 10:40:39.621, 1583739639621
75, -26156.48, -30910.36, -20013.46, -16048.87, -19882.37, -20888.17, -23664.21, -22372.66, 0.000, -0.018, 0.972, 10:40:39.622, 1583739639622
76, -25559.17, -30847.31, -19896.43, -15957.47, -19242.44, -20846.96, -23371.56, -22072.44, 0.000, 0.000, 0.000, 10:40:39.622, 1583739639622
77, -25449.14, -30856.22, -19870.50, -15919.47, -19040.67, -20834.22, -23356.10, -21987.46, 0.000, 0.000, 0.000, 10:40:39.622, 1583739639622
78, -25938.62, -30915.30, -19958.25, -15990.48, -19538.29, -20873.09, -23602.77, -22218.19, 0.000, 0.000, 0.000, 10:40:39.622, 1583739639622
79, -26270.41, -30927.06, -20027.59, -16078.59, -19994.17, -20908.63, -23740.10, -22416.12, 0.000, 0.000, 0.000, 10:40:39.622, 1583739639622
80, -26159.36, -30910.43, -20020.77, -16059.15, -19891.89, -20894.79, -23666.25, -22380.33, 0.000, 0.000, 0.000, 10:40:39.622, 1583739639622
81, -25566.44, -30843.57, -19905.10, -15970.66, -19254.60, -20856.93, -23375.14, -22082.83, 0.000, 0.000, 0.000, 10:40:39.622, 1583739639622
82, -25452.00, -30854.68, -19873.47, -15929.37, -19042.54, -20841.26, -23354.60, -21992.44, 0.000, 0.000, 0.000, 10:40:39.623, 1583739639623
83, -25933.57, -30903.83, -19962.23, -16000.96, -19536.97, -20880.60, -23598.86, -22221.75, 0.000, 0.000, 0.000, 10:40:39.623, 1583739639623
84, -26267.59, -30922.74, -20038.79, -16093.50, -20000.36, -20922.66, -23742.49, -22425.64, 0.000, 0.000, 0.000, 10:40:39.623, 1583739639623
85, -26155.05, -30912.39, -20027.63, -16071.82, -19894.62, -20905.79, -23669.49, -22389.67, 0.000, 0.000, 0.000, 10:40:39.623, 1583739639623
86, -25570.60, -30841.70, -19914.20, -15984.67, -19258.04, -20868.66, -23380.64, -22094.05, -0.006, -0.016, 0.956, 10:40:39.623, 1583739639623
87, -25451.28, -30852.54, -19878.41, -15937.89, -19041.36, -20850.36, -23358.64, -21999.05, 0.000, 0.000, 0.000, 10:40:39.623, 1583739639623
88, -25926.55, -30913.22, -19964.33, -16001.52, -19535.18, -20881.51, -23604.69, -22220.03, 0.000, 0.000, 0.000, 10:40:39.623, 1583739639623
89, -26259.79, -30927.10, -20035.92, -16082.39, -19996.96, -20914.64, -23746.02, -22417.77, 0.000, 0.000, 0.000, 10:40:39.623, 1583739639623
90, -26159.77, -30909.27, -20020.17, -16055.91, -19898.06, -20894.70, -23673.22, -22382.54, 0.000, 0.000, 0.000, 10:40:39.624, 1583739639624
91, -25571.51, -30842.84, -19903.69, -15962.68, -19259.58, -20853.33, -23381.91, -22083.84, 0.000, 0.000, 0.000, 10:40:39.624, 1583739639624
92, -25448.38, -30851.69, -19873.85, -15921.62, -19038.59, -20839.69, -23357.95, -21987.83, 0.000, 0.000, 0.000, 10:40:39.624, 1583739639624
93, -25928.40, -30908.73, -19962.88, -15993.19, -19531.18, -20877.22, -23602.48, -22212.98, 0.000, 0.000, 0.000, 10:40:39.624, 1583739639624
94, -26268.02, -30925.80, -20036.19, -16088.09, -19997.35, -20919.13, -23745.53, -22421.12, 0.000, 0.000, 0.000, 10:40:39.624, 1583739639624
95, -26163.77, -30904.68, -20022.45, -16060.69, -19901.23, -20899.06, -23671.97, -22388.76, 0.000, 0.000, 0.000, 10:40:39.624, 1583739639624
96, -25574.69, -30839.53, -19909.08, -15973.14, -19266.87, -20861.06, -23384.91, -22094.05, 0.000, -0.016, 0.958, 10:40:39.624, 1583739639624
97, -25442.50, -30860.90, -19871.44, -15929.62, -19038.21, -20843.98, -23354.94, -21994.76, 0.000, 0.000, 0.000, 10:40:39.625, 1583739639625
98, -25919.04, -30914.76, -19954.68, -15994.51, -19523.26, -20878.23, -23597.12, -22217.43, 0.000, 0.000, 0.000, 10:40:39.625, 1583739639625
99, -26257.62, -30921.92, -20029.40, -16085.57, -19990.46, -20918.13, -23740.37, -22421.12, 0.000, 0.000, 0.000, 10:40:39.625, 1583739639625
100, -26170.29, -30906.85, -20022.83, -16063.28, -19905.12, -20900.13, -23673.25, -22390.90, 0.000, 0.000, 0.000, 10:40:39.625, 1583739639625
101, -25581.95, -30851.38, -19903.15, -15967.08, -19264.39, -20855.23, -23378.76, -22089.65, 0.000, 0.000, 0.000, 10:40:39.625, 1583739639625
102, -25443.68, -30859.60, -19865.20, -15924.46, -19026.83, -20840.61, -23345.84, -21987.77, 0.000, 0.000, 0.000, 10:40:39.625, 1583739639625
103, -25917.43, -30904.19, -19954.32, -15992.76, -19514.08, -20876.19, -23591.33, -22209.86, 0.000, 0.000, 0.000, 10:40:39.626, 1583739639626
104, -26265.53, -30919.32, -20028.26, -16082.30, -19984.78, -20914.33, -23738.00, -22414.53, 0.000, 0.000, 0.000, 10:40:39.626, 1583739639626
105, -26179.05, -30902.72, -20014.98, -16056.26, -19897.57, -20894.54, -23671.99, -22385.79, 0.000, 0.000, 0.000, 10:40:39.626, 1583739639626
106, -25591.43, -30845.47, -19903.49, -15967.13, -19268.81, -20857.71, -23386.34, -22093.07, 0.004, -0.024, 0.964, 10:40:40.084, 1583739640084
107, -25454.28, -30868.94, -19874.77, -15926.38, -19037.94, -20845.48, -23359.36, -21992.13, 0.000, 0.000, 0.000, 10:40:40.084, 1583739640084
108, -25923.42, -30917.85, -19956.71, -15989.97, -19518.71, -20876.44, -23599.96, -22208.40, 0.000, 0.000, 0.000, 10:40:40.084, 1583739640084
109, -26265.18, -30925.72, -20032.86, -16077.74, -19991.87, -20913.48, -23744.59, -22414.20, 0.000, 0.000, 0.000, 10:40:40.084, 1583739640084
110, -26181.85, -30911.90, -20028.93, -16059.50, -19917.33, -20898.68, -23683.91, -22391.89, 0.000, 0.000, 0.000, 10:40:40.085, 1583739640085
111, -25592.95, -30848.49, -19916.23, -15972.11, -19287.72, -20860.90, -23395.62, -22095.97, 0.000, 0.000, 0.000, 10:40:40.085, 1583739640085
112, -25442.68, -30848.96, -19880.40, -15926.98, -19043.66, -20843.20, -23358.55, -21987.10, 0.000, 0.000, 0.000, 10:40:40.085, 1583739640085
113, -25913.34, -30903.32, -19970.81, -15993.70, -19524.40, -20877.22, -23602.17, -22207.89, 0.000, 0.000, 0.000, 10:40:40.085, 1583739640085
114, -26250.27, -30922.07, -20044.64, -16085.97, -19996.67, -20917.19, -23748.91, -22415.04, 0.000, 0.000, 0.000, 10:40:40.085, 1583739640085
115, -26174.32, -30905.00, -20035.81, -16067.75, -19923.49, -20902.21, -23687.24, -22393.38, 0.000, 0.000, 0.000, 10:40:40.090, 1583739640090
116, -25598.02, -30839.46, -19921.30, -15980.60, -19295.46, -20864.62, -23397.52, -22101.20, 0.002, -0.020, 0.966, 10:40:40.090, 1583739640090
117, -25438.43, -30839.30, -19869.45, -15924.88, -19034.86, -20839.96, -23349.01, -21985.06, 0.000, 0.000, 0.000, 10:40:40.090, 1583739640090
118, -25908.06, -30914.92, -19949.74, -15979.42, -19506.79, -20868.28, -23587.37, -22199.73, 0.000, 0.000, 0.000, 10:40:40.090, 1583739640090
119, -26257.85, -30925.22, -20029.20, -16081.88, -19987.64, -20915.24, -23738.47, -22413.84, 0.000, 0.000, 0.000, 10:40:40.090, 1583739640090
120, -26183.03, -30907.07, -20028.23, -16071.55, -19925.08, -20903.39, -23683.75, -22397.77, 0.000, 0.000, 0.000, 10:40:40.091, 1583739640091
121, -25593.78, -30843.91, -19913.46, -15977.63, -19294.74, -20862.40, -23393.60, -22103.55, 0.000, 0.000, 0.000, 10:40:40.091, 1583739640091
122, -25429.67, -30849.70, -19865.78, -15920.52, -19032.33, -20838.06, -23344.25, -21984.46, 0.000, 0.000, 0.000, 10:40:40.093, 1583739640093
123, -25899.32, -30908.15, -19945.22, -15976.96, -19498.19, -20866.34, -23582.07, -22198.90, 0.000, 0.000, 0.000, 10:40:40.094, 1583739640094
124, -26251.65, -30917.65, -20035.95, -16083.02, -19988.43, -20917.59, -23740.48, -22415.56, 0.000, 0.000, 0.000, 10:40:40.094, 1583739640094
125, -26185.60, -30905.91, -20036.08, -16075.06, -19933.82, -20909.92, -23688.29, -22403.11, 0.000, 0.000, 0.000, 10:40:40.094, 1583739640094
126, -25596.68, -30840.29, -19916.05, -15981.99, -19301.42, -20869.22, -23397.63, -22108.91, 0.006, -0.018, 0.968, 10:40:40.095, 1583739640095
127, -25431.39, -30852.56, -19870.01, -15921.55, -19035.64, -20842.93, -23345.70, -21984.88, 0.000, 0.000, 0.000, 10:40:40.095, 1583739640095
128, -25903.86, -30907.68, -19948.82, -15978.79, -19500.06, -20869.09, -23582.14, -22193.43, 0.000, 0.000, 0.000, 10:40:40.095, 1583739640095
129, -26262.09, -30934.99, -20027.88, -16083.24, -19988.56, -20917.19, -23739.65, -22409.70, 0.000, 0.000, 0.000, 10:40:40.095, 1583739640095
130, -26192.64, -30922.38, -20025.17, -16064.67, -19932.77, -20900.00, -23685.27, -22392.96, 0.000, 0.000, 0.000, 10:40:40.095, 1583739640095
131, -25606.76, -30856.45, -19912.88, -15974.41, -19304.66, -20860.53, -23397.63, -22100.87, 0.000, 0.000, 0.000, 10:40:40.096, 1583739640096
132, -25434.54, -30853.68, -19871.30, -15927.32, -19036.38, -20843.92, -23349.93, -21983.97, 0.000, 0.000, 0.000, 10:40:40.096, 1583739640096
133, -25901.18, -30911.10, -19960.20, -15989.61, -19503.21, -20876.06, -23594.37, -22199.39, 0.000, 0.000, 0.000, 10:40:40.096, 1583739640096
134, -26257.20, -30925.02, -20042.67, -16093.81, -19989.77, -20924.12, -23747.68, -22414.40, 0.000, 0.000, 0.000, 10:40:40.096, 1583739640096
135, -26193.25, -30909.64, -20028.93, -16068.47, -19931.29, -20903.33, -23687.64, -22398.82, 0.000, 0.000, 0.000, 10:40:40.096, 1583739640096
136, -25608.44, -30845.65, -19908.38, -15961.58, -19296.82, -20851.88, -23391.95, -22099.68, 0.002, -0.022, 0.970, 10:40:40.096, 1583739640096
137, -25430.65, -30842.99, -19864.78, -15916.14, -19021.91, -20835.38, -23340.14, -21980.35, 0.000, 0.000, 0.000, 10:40:40.097, 1583739640097
138, -25892.64, -30891.52, -19947.93, -15978.57, -19483.59, -20866.60, -23579.01, -22193.36, 0.000, 0.000, 0.000, 10:40:40.097, 1583739640097
139, -26250.45, -30926.10, -20024.57, -16075.13, -19970.21, -20908.89, -23730.38, -22407.04, 0.000, 0.000, 0.000, 10:40:40.097, 1583739640097
140, -26191.77, -30910.99, -20016.28, -16054.48, -19919.23, -20888.84, -23673.31, -22392.02, 0.000, 0.000, 0.000, 10:40:40.097, 1583739640097
141, -25611.54, -30837.56, -19909.86, -15972.82, -19300.37, -20855.94, -23389.29, -22105.58, 0.000, 0.000, 0.000, 10:40:40.098, 1583739640098
142, -25422.27, -30846.39, -19867.79, -15925.10, -19025.04, -20839.56, -23335.04, -21983.54, 0.000, 0.000, 0.000, 10:40:40.098, 1583739640098
143, -25897.69, -30910.40, -19949.98, -15981.97, -19485.40, -20869.31, -23576.02, -22195.75, 0.000, 0.000, 0.000, 10:40:40.098, 1583739640098
144, -26252.50, -30928.98, -20027.92, -16080.43, -19975.15, -20913.83, -23730.22, -22410.30, 0.000, 0.000, 0.000, 10:40:40.098, 1583739640098
145, -26193.14, -30909.27, -20031.43, -16071.82, -19937.11, -20904.51, -23686.52, -22405.57, 0.000, 0.000, 0.000, 10:40:40.098, 1583739640098
146, -25608.48, -30840.04, -19918.78, -15979.13, -19314.23, -20864.32, -23397.49, -22112.58, 0.000, -0.018, 0.972, 10:40:40.098, 1583739640098
147, -25415.74, -30842.84, -19876.94, -15928.46, -19031.95, -20846.89, -23338.84, -21986.11, 0.000, 0.000, 0.000, 10:40:40.099, 1583739640099
148, -25880.57, -30898.56, -19964.85, -15989.90, -19494.23, -20880.44, -23582.79, -22200.00, 0.000, 0.000, 0.000, 10:40:40.099, 1583739640099
149, -26241.48, -30926.63, -20042.00, -16090.15, -19986.97, -20925.10, -23738.87, -22416.05, 0.000, 0.000, 0.000, 10:40:40.099, 1583739640099
150, -26191.48, -30909.76, -20037.58, -16077.68, -19946.05, -20910.19, -23690.50, -22409.79, 0.000, 0.000, 0.000, 10:40:40.099, 1583739640099
151, -25614.92, -30842.34, -19918.40, -15979.46, -19320.65, -20865.17, -23401.00, -22117.34, 0.000, 0.000, 0.000, 10:40:40.099, 1583739640099
152, -25415.56, -30848.74, -19867.93, -15920.52, -19025.22, -20840.68, -23335.06, -21981.29, 0.000, 0.000, 0.000, 10:40:40.100, 1583739640100
153, -25882.07, -30908.57, -19952.60, -15981.54, -19480.04, -20873.09, -23575.61, -22190.70, 0.000, 0.000, 0.000, 10:40:40.100, 1583739640100
154, -26248.50, -30925.45, -20034.00, -16079.26, -19975.71, -20915.11, -23733.08, -22404.40, 0.000, 0.000, 0.000, 10:40:40.100, 1583739640100
155, -26197.67, -30910.90, -20038.14, -16070.99, -19945.29, -20902.23, -23690.86, -22398.77, 0.000, 0.000, 0.000, 10:40:40.100, 1583739640100
156, -25615.23, -30848.20, -19927.16, -15979.89, -19324.71, -20862.36, -23408.58, -22108.20, 0.002, -0.016, 0.968, 10:40:40.100, 1583739640100
157, -25418.22, -30848.63, -19866.28, -15912.72, -19019.66, -20831.38, -23337.93, -21967.67, 0.000, 0.000, 0.000, 10:40:40.101, 1583739640101
158, -25877.71, -30903.25, -19946.34, -15966.72, -19466.87, -20856.57, -23574.27, -22172.64, 0.000, 0.000, 0.000, 10:40:40.101, 1583739640101
159, -26239.94, -30911.17, -20033.71, -16072.71, -19969.41, -20907.24, -23735.23, -22395.26, 0.000, 0.000, 0.000, 10:40:40.101, 1583739640101
160, -26201.65, -30910.72, -20032.21, -16062.61, -19944.26, -20896.38, -23693.70, -22395.40, 0.000, 0.000, 0.000, 10:40:40.101, 1583739640101
161, -25621.76, -30847.80, -19915.05, -15968.80, -19322.10, -20852.52, -23402.70, -22103.08, 0.000, 0.000, 0.000, 10:40:40.101, 1583739640101
162, -25413.51, -30835.95, -19864.75, -15915.63, -19017.53, -20831.47, -23331.73, -21967.83, 0.000, 0.000, 0.000, 10:40:40.101, 1583739640101
163, -25869.93, -30897.91, -19938.83, -15962.59, -19458.33, -20854.09, -23563.03, -22168.35, 0.000, 0.000, 0.000, 10:40:40.101, 1583739640101
164, -26239.03, -30929.31, -20019.03, -16060.44, -19955.32, -20900.38, -23721.59, -22386.93, 0.000, 0.000, 0.000, 10:40:40.102, 1583739640102
165, -26203.98, -30910.12, -20024.19, -16056.46, -19936.01, -20892.26, -23684.67, -22393.45, 0.000, 0.000, 0.000, 10:40:40.102, 1583739640102
166, -25626.32, -30845.94, -19913.41, -15966.83, -19320.33, -20851.32, -23399.86, -22105.99, 0.004, -0.022, 0.974, 10:40:40.102, 1583739640102
167, -25403.72, -30843.95, -19856.66, -15909.32, -19008.88, -20824.27, -23325.45, -21962.85, 0.000, 0.000, 0.000, 10:40:40.102, 1583739640102
168, -25863.81, -30903.34, -19941.06, -15969.72, -19456.32, -20858.36, -23566.65, -22174.14, 0.000, 0.000, 0.000, 10:40:40.102, 1583739640102
169, -26232.16, -30918.79, -20023.65, -16071.17, -19953.83, -20906.77, -23725.59, -22395.11, 0.000, 0.000, 0.000, 10:40:40.102, 1583739640102
170, -26202.03, -30897.13, -20030.04, -16064.04, -19938.92, -20896.85, -23689.07, -22401.86, 0.000, 0.000, 0.000, 10:40:40.102, 1583739640102
171, -25638.81, -30850.53, -19924.59, -15982.99, -19331.15, -20863.43, -23408.67, -22120.83, 0.000, 0.000, 0.000, 10:40:40.102, 1583739640102
172, -25418.49, -30853.39, -19871.75, -15928.66, -19018.14, -20842.93, -23334.57, -21979.41, 0.000, 0.000, 0.000, 10:40:40.103, 1583739640103
173, -25873.44, -30914.23, -19950.79, -15979.64, -19457.46, -20869.98, -23570.45, -22183.30, 0.000, 0.000, 0.000, 10:40:40.103, 1583739640103
174, -26238.09, -30929.31, -20028.03, -16076.94, -19955.68, -20910.93, -23725.97, -22398.15, 0.000, 0.000, 0.000, 10:40:40.103, 1583739640103
175, -26208.29, -30916.69, -20033.51, -16067.80, -19946.27, -20899.37, -23693.74, -22404.34, 0.000, 0.000, 0.000, 10:40:40.103, 1583739640103
176, -25638.25, -30847.73, -19917.84, -15972.98, -19331.80, -20854.89, -23409.21, -22114.66, 0.000, 0.000, 0.000, 10:40:40.103, 1583739640103
177, -25411.61, -30835.53, -19862.56, -15915.09, -19011.30, -20831.47, -23331.31, -21967.41, 0.000, -0.022, 0.974, 10:40:40.103, 1583739640103
178, -25859.60, -30896.32, -19940.64, -15968.35, -19447.40, -20858.42, -23567.07, -22168.21, 0.000, 0.000, 0.000, 10:40:40.103, 1583739640103
179, -26235.61, -30920.37, -20019.25, -16066.21, -19950.52, -20900.82, -23725.84, -22386.10, 0.000, 0.000, 0.000, 10:40:40.103, 1583739640103
180, -26214.04, -30912.93, -20025.60, -16061.27, -19946.74, -20891.10, -23694.79, -22395.58, 0.000, 0.000, 0.000, 10:40:40.104, 1583739640104
181, -25641.27, -30840.42, -19916.30, -15971.95, -19336.45, -20850.80, -23411.06, -22110.32, 0.000, 0.000, 0.000, 10:40:40.104, 1583739640104
182, -25406.85, -30837.18, -19861.18, -15914.71, -19010.58, -20827.60, -23329.86, -21960.52, 0.000, 0.000, 0.000, 10:40:40.104, 1583739640104
183, -25853.37, -30907.30, -19940.13, -15966.63, -19442.40, -20856.50, -23566.61, -22163.16, 0.000, 0.000, 0.000, 10:40:40.104, 1583739640104
184, -26225.37, -30922.77, -20025.91, -16076.65, -19952.51, -20908.85, -23732.32, -22390.77, 0.000, 0.000, 0.000, 10:40:40.104, 1583739640104
185, -26211.04, -30902.02, -20032.55, -16074.35, -19952.15, -20899.97, -23699.04, -22402.75, 0.000, 0.000, 0.000, 10:40:40.104, 1583739640104
186, -25643.96, -30838.83, -19918.51, -15972.71, -19339.31, -20853.55, -23412.13, -22115.13, 0.000, 0.000, 0.000, 10:40:40.104, 1583739640104
187, -25401.28, -30827.14, -19858.03, -15911.33, -19006.16, -20826.84, -23323.87, -21961.10, -0.002, -0.022, 0.970, 10:40:40.104, 1583739640104
188, -25846.17, -30887.85, -19935.52, -15962.99, -19434.93, -20852.99, -23556.73, -22159.90, 0.000, 0.000, 0.000, 10:40:40.104, 1583739640104
189, -26225.28, -30916.73, -20020.32, -16070.79, -19946.83, -20903.96, -23722.84, -22387.04, 0.000, 0.000, 0.000, 10:40:40.105, 1583739640105
190, -26211.26, -30913.60, -20033.11, -16075.62, -19954.68, -20899.26, -23697.25, -22404.20, 0.000, 0.000, 0.000, 10:40:40.105, 1583739640105
191, -25650.15, -30846.50, -19928.52, -15992.87, -19352.74, -20863.70, -23418.99, -22125.63, 0.000, 0.000, 0.000, 10:40:40.105, 1583739640105
192, -25399.54, -30829.45, -19862.43, -15920.57, -19008.12, -20829.48, -23324.85, -21963.45, 0.000, 0.000, 0.000, 10:40:40.105, 1583739640105
193, -25841.28, -30888.79, -19935.27, -15965.47, -19431.53, -20853.13, -23556.79, -22158.36, 0.000, 0.000, 0.000, 10:40:40.105, 1583739640105
194, -26219.62, -30915.39, -20015.56, -16065.49, -19944.35, -20900.69, -23721.03, -22381.72, 0.000, 0.000, 0.000, 10:40:40.105, 1583739640105
195, -26210.79, -30913.96, -20023.29, -16057.45, -19951.26, -20889.85, -23693.45, -22396.94, 0.000, 0.000, 0.000, 10:40:40.105, 1583739640105
196, -25645.14, -30848.38, -19917.30, -15968.64, -19347.96, -20850.53, -23413.09, -22117.86, 0.000, 0.000, 0.000, 10:40:40.106, 1583739640106
197, -25403.25, -30830.63, -19861.51, -15913.66, -19008.46, -20829.99, -23326.39, -21965.77, -0.002, -0.022, 0.972, 10:40:40.106, 1583739640106
198, -25850.22, -30889.66, -19939.37, -15965.67, -19431.91, -20855.79, -23559.81, -22161.06, 0.000, 0.000, 0.000, 10:40:40.106, 1583739640106
199, -26233.77, -30921.18, -20026.16, -16075.15, -19947.19, -20907.57, -23727.40, -22386.19, 0.000, 0.000, 0.000, 10:40:40.106, 1583739640106
200, -26224.16, -30915.41, -20035.59, -16066.12, -19961.16, -20895.42, -23699.73, -22401.61, 0.000, 0.000, 0.000, 10:40:40.106, 1583739640106
201, -25659.40, -30842.86, -19910.02, -15963.19, -19348.94, -20845.84, -23410.93, -22116.36, 0.000, 0.000, 0.000, 10:40:40.106, 1583739640106
202, -25405.93, -30837.83, -19852.35, -15911.71, -19003.25, -20826.88, -23319.26, -21962.62, 0.000, 0.000, 0.000, 10:40:40.107, 1583739640107
203, -25848.03, -30903.81, -19934.31, -15964.60, -19424.22, -20855.76, -23552.46, -22160.66, 0.000, 0.000, 0.000, 10:40:40.107, 1583739640107
204, -26224.70, -30916.06, -20012.83, -16065.47, -19936.28, -20901.54, -23714.39, -22383.24, 0.000, 0.000, 0.000, 10:40:40.107, 1583739640107
205, -26223.56, -30896.61, -20026.63, -16068.76, -19959.37, -20898.17, -23694.44, -22406.71, 0.000, 0.000, 0.000, 10:40:40.107, 1583739640107
206, -25660.05, -30842.86, -19916.79, -15977.56, -19358.64, -20855.09, -23411.66, -22123.98, 0.000, 0.000, 0.000, 10:40:40.107, 1583739640107
207, -25399.34, -30842.48, -19857.71, -15924.99, -19008.91, -20835.83, -23317.09, -21965.17, -0.004, -0.022, 0.970, 10:40:40.107, 1583739640107
208, -25837.25, -30897.96, -19934.38, -15976.62, -19423.38, -20862.76, -23549.93, -22159.00, 0.000, 0.000, 0.000, 10:40:40.107, 1583739640107
209, -26219.56, -30911.93, -20014.40, -16070.88, -19935.72, -20903.35, -23714.80, -22379.42, 0.000, 0.000, 0.000, 10:40:40.107, 1583739640107
210, -26217.12, -30903.92, -20026.78, -16060.22, -19962.59, -20888.69, -23696.51, -22398.37, 0.000, 0.000, 0.000, 10:40:40.107, 1583739640107
211, -25661.70, -30846.72, -19926.33, -15977.12, -19369.26, -20850.85, -23419.87, -22122.55, 0.000, 0.000, 0.000, 10:40:40.108, 1583739640108
212, -25397.08, -30844.20, -19862.61, -15914.60, -19013.47, -20824.92, -23318.99, -21957.73, 0.000, 0.000, 0.000, 10:40:40.108, 1583739640108
213, -25836.13, -30894.22, -19937.13, -15964.84, -19426.82, -20853.71, -23551.43, -22152.63, 0.000, 0.000, 0.000, 10:40:40.108, 1583739640108
214, -26222.37, -30913.71, -20016.32, -16066.30, -19941.00, -20901.03, -23719.16, -22379.48, 0.000, 0.000, 0.000, 10:40:40.108, 1583739640108
215, -26237.62, -30919.39, -20027.83, -16069.83, -19973.67, -20896.78, -23703.69, -22408.09, 0.000, 0.000, 0.000, 10:40:40.109, 1583739640109
216, -25679.78, -30854.77, -19922.24, -15979.44, -19378.13, -20853.15, -23425.77, -22127.94, 0.000, 0.000, 0.000, 10:40:40.109, 1583739640109
217, -25400.57, -30847.75, -19857.02, -15912.47, -19012.73, -20823.24, -23323.02, -21957.84, 0.002, -0.022, 0.972, 10:40:40.109, 1583739640109
218, -25832.47, -30904.50, -19932.77, -15963.06, -19419.55, -20850.98, -23553.73, -22150.89, 0.000, 0.000, 0.000, 10:40:40.109, 1583739640109
219, -26218.13, -30924.02, -20014.73, -16073.56, -19938.18, -20901.83, -23718.53, -22378.32, 0.000, 0.000, 0.000, 10:40:40.109, 1583739640109
220, -26232.41, -30918.43, -20029.08, -16072.51, -19973.43, -20894.43, -23703.06, -22406.21, 0.000, 0.000, 0.000, 10:40:40.109, 1583739640109
221, -25678.55, -30850.14, -19922.20, -15973.23, -19376.44, -20847.99, -23425.79, -22128.14, 0.000, 0.000, 0.000, 10:40:40.110, 1583739640110
222, -25402.51, -30832.13, -19854.14, -15910.40, -19005.15, -20822.26, -23319.96, -21960.90, 0.000, 0.000, 0.000, 10:40:40.110, 1583739640110
223, -25834.59, -30889.93, -19923.32, -15959.64, -19403.57, -20847.18, -23543.67, -22149.66, 0.000, 0.000, 0.000, 10:40:40.110, 1583739640110
224, -26219.87, -30921.58, -20013.88, -16074.32, -19929.44, -20902.23, -23717.10, -22381.74, 0.000, 0.000, 0.000, 10:40:40.110, 1583739640110
225, -26232.61, -30914.29, -20028.82, -16070.50, -19973.21, -20894.28, -23703.82, -22408.27, 0.000, 0.000, 0.000, 10:40:40.110, 1583739640110
226, -25684.34, -30846.93, -19915.94, -15974.12, -19378.09, -20851.27, -23424.81, -22131.42, 0.000, 0.000, 0.000, 10:40:40.563, 1583739640563
227, -25395.80, -30832.58, -19848.44, -15909.79, -19005.40, -20825.70, -23316.94, -21961.19, 0.004, -0.024, 0.970, 10:40:40.563, 1583739640563
228, -25827.46, -30893.66, -19932.14, -15965.20, -19410.75, -20855.96, -23549.42, -22151.92, 0.000, 0.000, 0.000, 10:40:40.564, 1583739640564
229, -26226.33, -30925.54, -20021.15, -16078.50, -19938.45, -20911.64, -23725.24, -22385.65, 0.000, 0.000, 0.000, 10:40:40.564, 1583739640564
230, -26240.14, -30921.07, -20033.78, -16075.96, -19982.32, -20903.22, -23711.80, -22415.76, 0.000, 0.000, 0.000, 10:40:40.564, 1583739640564
231, -25691.23, -30856.69, -19925.35, -15981.68, -19388.39, -20858.16, -23430.93, -22138.15, 0.000, 0.000, 0.000, 10:40:40.564, 1583739640564
232, -25401.35, -30843.98, -19857.89, -15914.71, -19004.66, -20829.57, -23316.78, -21961.59, 0.000, 0.000, 0.000, 10:40:40.564, 1583739640564
233, -25826.26, -30901.22, -19931.74, -15958.23, -19401.22, -20852.75, -23543.23, -22146.46, 0.000, 0.000, 0.000, 10:40:40.564, 1583739640564
234, -26218.24, -30921.49, -20017.37, -16066.61, -19929.91, -20903.31, -23715.89, -22377.78, 0.000, 0.000, 0.000, 10:40:40.565, 1583739640565
235, -26240.70, -30913.85, -20034.92, -16071.31, -19980.85, -20897.67, -23708.81, -22412.41, 0.000, 0.000, 0.000, 10:40:40.565, 1583739640565
236, -25689.69, -30852.45, -19928.23, -15981.38, -19392.24, -20853.53, -23432.36, -22136.47, 0.000, 0.000, 0.000, 10:40:40.565, 1583739640565
237, -25386.26, -30830.77, -19862.29, -15918.33, -19008.73, -20826.60, -23317.99, -21958.29, 0.006, -0.020, 0.970, 10:40:40.571, 1583739640571
238, -25811.08, -30896.35, -19937.46, -15963.55, -19401.29, -20850.76, -23544.37, -22142.51, 0.000, 0.000, 0.000, 10:40:40.571, 1583739640571
239, -26219.80, -30921.04, -20016.12, -16063.73, -19924.50, -20895.44, -23715.45, -22369.20, 0.000, 0.000, 0.000, 10:40:40.572, 1583739640572
240, -26242.89, -30910.03, -20025.31, -16062.77, -19973.72, -20885.13, -23703.33, -22400.45, 0.000, 0.000, 0.000, 10:40:40.572, 1583739640572
241, -25695.01, -30862.46, -19918.91, -15974.52, -19389.18, -20844.16, -23428.52, -22129.16, 0.000, 0.000, 0.000, 10:40:40.572, 1583739640572
242, -25393.68, -30831.37, -19854.88, -15913.95, -19003.25, -20820.56, -23311.88, -21950.84, 0.000, 0.000, 0.000, 10:40:40.572, 1583739640572
243, -25815.35, -30895.74, -19926.22, -15960.02, -19389.11, -20845.15, -23537.53, -22134.46, 0.000, 0.000, 0.000, 10:40:40.572, 1583739640572
244, -26214.71, -30925.02, -20009.53, -16071.35, -19918.24, -20898.97, -23714.02, -22371.01, 0.000, 0.000, 0.000, 10:40:40.572, 1583739640572
245, -26238.87, -30915.50, -20022.00, -16067.80, -19972.63, -20888.62, -23703.60, -22405.99, 0.000, 0.000, 0.000, 10:40:40.572, 1583739640572
246, -25695.25, -30858.93, -19914.55, -15970.48, -19387.46, -20841.41, -23424.40, -22130.57, 0.000, 0.000, 0.000, 10:40:40.572, 1583739640572
247, -25390.78, -30845.70, -19852.42, -15916.05, -18998.24, -20822.77, -23308.31, -21953.59, 0.004, -0.028, 0.962, 10:40:40.573, 1583739640573
248, -25809.83, -30900.77, -19928.70, -15959.06, -19386.90, -20848.57, -23537.41, -22136.92, 0.000, 0.000, 0.000, 10:40:40.573, 1583739640573
249, -26209.34, -30914.34, -20012.57, -16061.02, -19917.79, -20897.52, -23712.50, -22368.08, 0.000, 0.000, 0.000, 10:40:40.573, 1583739640573
250, -26243.21, -30903.14, -20029.64, -16072.27, -19983.84, -20896.15, -23707.89, -22410.55, 0.000, 0.000, 0.000, 10:40:40.573, 1583739640573
251, -25692.37, -30857.77, -19921.26, -15978.41, -19400.44, -20851.29, -23432.70, -22139.38, 0.000, 0.000, 0.000, 10:40:40.573, 1583739640573
252, -25397.97, -30846.50, -19858.14, -15924.03, -19011.66, -20834.93, -23318.93, -21964.52, 0.000, 0.000, 0.000, 10:40:40.573, 1583739640573
253, -25809.83, -30898.47, -19923.38, -15960.89, -19386.63, -20852.95, -23537.21, -22138.46, 0.000, 0.000, 0.000, 10:40:40.574, 1583739640574
254, -26209.12, -30918.47, -20005.28, -16056.46, -19912.63, -20894.95, -23712.00, -22365.29, 0.000, 0.000, 0.000, 10:40:40.574, 1583739640574
255, -26245.35, -30909.76, -20026.31, -16066.92, -19984.52, -20892.17, -23708.76, -22406.80, 0.000, 0.000, 0.000, 10:40:40.574, 1583739640574
0, -25706.34, -30851.02, -19928.05, -15984.27, -19411.73, -20854.65, -23439.29, -22141.66, 0.000, 0.000, 0.000, 10:40:40.574, 1583739640574
1, -25389.61, -30834.30, -19854.21, -15913.23, -19005.96, -20823.22, -23312.38, -21953.26, 0.000, -0.026, 0.964, 10:40:40.574, 1583739640574
2, -25797.69, -30892.75, -19922.65, -15951.41, -19378.89, -20842.31, -23530.51, -22128.36, 0.000, 0.000, 0.000, 10:40:40.574, 1583739640574
3, -26199.17, -30913.38, -20007.96, -16063.28, -19912.03, -20896.78, -23708.12, -22364.13, 0.000, 0.000, 0.000, 10:40:40.575, 1583739640575
4, -26237.44, -30902.60, -20022.56, -16072.67, -19984.69, -20893.25, -23703.33, -22408.18, 0.000, 0.000, 0.000, 10:40:40.575, 1583739640575
5, -25698.34, -30844.67, -19919.92, -15981.76, -19407.55, -20849.75, -23430.64, -22141.97, 0.000, 0.000, 0.000, 10:40:40.575, 1583739640575
6, -25378.84, -30842.75, -19848.42, -15911.71, -18997.84, -20818.44, -23301.54, -21951.45, 0.000, 0.000, 0.000, 10:40:40.575, 1583739640575
7, -25797.96, -30899.63, -19923.12, -15958.61, -19374.45, -20845.35, -23526.86, -22131.18, 0.000, 0.000, 0.000, 10:40:40.575, 1583739640575
8, -26208.11, -30923.73, -20015.47, -16068.58, -19914.64, -20900.80, -23711.54, -22369.27, 0.000, 0.000, 0.000, 10:40:40.576, 1583739640576
9, -26249.71, -30908.30, -20038.72, -16076.85, -19998.31, -20899.13, -23714.87, -22416.94, 0.000, 0.000, 0.000, 10:40:40.576, 1583739640576
10, -25713.49, -30847.84, -19934.87, -15990.59, -19426.17, -20860.28, -23444.54, -22153.75, 0.000, 0.000, 0.000, 10:40:40.576, 1583739640576
11, -25381.95, -30830.59, -19856.37, -15919.34, -19008.86, -20830.53, -23311.55, -21959.81, 0.000, 0.000, 0.000, 10:40:40.577, 1583739640577
12, -25791.72, -30893.15, -19925.15, -15958.52, -19372.84, -20850.98, -23531.74, -22131.56, -0.002, -0.020, 0.974, 10:40:40.577, 1583739640577
13, -26199.62, -30915.28, -20010.33, -16065.29, -19907.89, -20900.13, -23709.46, -22363.37, 0.000, 0.000, 0.000, 10:40:40.577, 1583739640577
14, -26247.63, -30908.68, -20026.25, -16070.26, -19992.12, -20893.22, -23708.94, -22409.17, 0.000, 0.000, 0.000, 10:40:40.577, 1583739640577
15, -25720.08, -30850.19, -19923.83, -15979.02, -19423.93, -20850.76, -23441.70, -22145.75, 0.000, 0.000, 0.000, 10:40:40.577, 1583739640577
16, -25390.66, -30829.38, -19855.17, -15915.31, -19007.72, -20823.80, -23310.77, -21952.05, 0.000, 0.000, 0.000, 10:40:40.577, 1583739640577
17, -25792.46, -30899.32, -19919.45, -15950.36, -19366.02, -20841.55, -23527.29, -22120.52, 0.000, 0.000, 0.000, 10:40:40.578, 1583739640578
18, -26193.83, -30920.33, -19995.56, -16049.87, -19897.66, -20884.84, -23700.72, -22349.55, 0.000, 0.000, 0.000, 10:40:40.578, 1583739640578
19, -26237.59, -30904.37, -20015.25, -16057.72, -19986.35, -20879.08, -23702.28, -22397.16, 0.000, 0.000, 0.000, 10:40:40.578, 1583739640578
20, -25715.48, -30846.77, -19926.15, -15980.65, -19426.57, -20846.15, -23440.18, -22141.95, 0.000, 0.000, 0.000, 10:40:40.578, 1583739640578
21, -25386.31, -30825.22, -19852.08, -15917.62, -19003.54, -20818.97, -23301.47, -21944.58, 0.000, 0.000, 0.000, 10:40:40.578, 1583739640578
22, -25783.34, -30880.74, -19912.12, -15948.39, -19354.96, -20832.54, -23513.63, -22109.07, 0.000, -0.024, 0.968, 10:40:40.579, 1583739640579
23, -26190.37, -30914.21, -19990.26, -16044.28, -19885.14, -20876.46, -23691.93, -22340.03, 0.000, 0.000, 0.000, 10:40:40.579, 1583739640579
24, -26243.43, -30902.49, -20014.96, -16054.34, -19979.98, -20874.27, -23700.36, -22392.18, 0.000, 0.000, 0.000, 10:40:40.579, 1583739640579
25, -25723.97, -30845.38, -19918.00, -15972.40, -19421.56, -20838.51, -23436.94, -22136.36, 0.000, 0.000, 0.000, 10:40:40.579, 1583739640579
26, -25374.30, -30818.63, -19837.98, -15902.26, -18991.85, -20808.96, -23292.91, -21937.32, 0.000, 0.000, 0.000, 10:40:40.579, 1583739640579
27, -25772.14, -30872.14, -19907.40, -15935.83, -19344.58, -20831.24, -23510.48, -22108.15, 0.000, 0.000, 0.000, 10:40:40.580, 1583739640580
28, -26184.11, -30906.07, -19998.57, -16048.46, -19889.12, -20887.46, -23694.10, -22348.59, 0.000, 0.000, 0.000, 10:40:40.580, 1583739640580
29, -26242.98, -30910.76, -20025.06, -16070.81, -19991.24, -20892.58, -23703.20, -22408.05, 0.000, 0.000, 0.000, 10:40:40.580, 1583739640580
30, -25727.88, -30851.38, -19926.40, -15986.86, -19431.96, -20855.23, -23439.00, -22151.49, 0.000, 0.000, 0.000, 10:40:40.581, 1583739640581
31, -25373.86, -30825.94, -19850.11, -15911.36, -18995.65, -20822.17, -23294.63, -21946.89, 0.000, 0.000, 0.000, 10:40:40.582, 1583739640582
32, -25775.43, -30883.52, -19916.99, -15946.00, -19344.21, -20842.13, -23511.44, -22112.02, -0.002, -0.020, 0.970, 10:40:40.582, 1583739640582
33, -26190.81, -30901.89, -20004.30, -16054.12, -19891.20, -20893.40, -23696.94, -22349.93, 0.000, 0.000, 0.000, 10:40:40.582, 1583739640582
34, -26252.39, -30897.20, -20024.99, -16069.38, -19993.79, -20890.95, -23706.97, -22405.43, 0.000, 0.000, 0.000, 10:40:40.582, 1583739640582
35, -25732.27, -30832.31, -19928.75, -15983.93, -19438.26, -20850.20, -23442.08, -22146.04, 0.000, 0.000, 0.000, 10:40:40.582, 1583739640582
36, -25381.08, -30827.61, -19854.52, -15912.85, -19002.69, -20822.15, -23299.10, -21943.47, 0.000, 0.000, 0.000, 10:40:40.582, 1583739640582
37, -25766.93, -30887.81, -19915.43, -15937.26, -19341.66, -20834.35, -23510.77, -22101.18, 0.000, 0.000, 0.000, 10:40:40.582, 1583739640582
38, -26180.57, -30906.18, -19998.69, -16042.27, -19883.78, -20882.45, -23694.93, -22336.97, 0.000, 0.000, 0.000, 10:40:40.583, 1583739640583
39, -26248.70, -30900.44, -20028.12, -16064.22, -19998.42, -20886.38, -23711.62, -22398.71, 0.000, 0.000, 0.000, 10:40:40.583, 1583739640583
40, -25730.81, -30845.16, -19932.08, -15977.74, -19443.07, -20844.86, -23449.17, -22140.16, 0.000, 0.000, 0.000, 10:40:40.583, 1583739640583
41, -25371.08, -30821.80, -19852.33, -15901.97, -18999.14, -20811.69, -23299.88, -21931.49, 0.000, 0.000, 0.000, 10:40:40.583, 1583739640583
42, -25764.63, -30892.28, -19925.04, -15941.29, -19344.83, -20838.22, -23518.64, -22101.49, 0.006, -0.024, 0.970, 10:40:40.583, 1583739640583
43, -26174.47, -30914.29, -20013.48, -16052.49, -19889.52, -20890.77, -23702.53, -22341.44, 0.000, 0.000, 0.000, 10:40:40.583, 1583739640583
44, -26246.51, -30905.11, -20033.00, -16066.05, -20001.53, -20888.42, -23713.35, -22402.64, 0.000, 0.000, 0.000, 10:40:40.583, 1583739640583
45, -25746.91, -30850.86, -19934.51, -15980.98, -19451.43, -20849.71, -23452.21, -22150.33, 0.000, 0.000, 0.000, 10:40:40.584, 1583739640584
46, -25381.46, -30828.02, -19854.85, -15916.32, -19007.88, -20825.12, -23302.56, -21946.78, 0.000, 0.000, 0.000, 10:40:40.584, 1583739640584
47, -25765.55, -30883.67, -19921.68, -15951.41, -19344.50, -20845.37, -23512.18, -22109.43, 0.000, 0.000, 0.000, 10:40:40.584, 1583739640584
48, -26185.40, -30915.79, -20012.28, -16062.92, -19891.44, -20900.40, -23698.82, -22351.56, 0.000, 0.000, 0.000, 10:40:40.584, 1583739640584
49, -26256.97, -30908.71, -20036.60, -16084.27, -20011.94, -20903.78, -23713.05, -22418.29, 0.000, 0.000, 0.000, 10:40:40.584, 1583739640584
50, -25746.48, -30844.49, -19937.46, -15998.66, -19463.09, -20864.53, -23451.38, -22168.28, 0.000, 0.000, 0.000, 10:40:40.584, 1583739640584
51, -25379.55, -30836.94, -19854.74, -15921.75, -19007.30, -20832.45, -23298.99, -21958.00, 0.000, 0.000, 0.000, 10:40:40.585, 1583739640585
52, -25760.52, -30898.78, -19922.22, -15954.70, -19337.32, -20852.19, -23513.52, -22117.52, 0.008, -0.020, 0.962, 10:40:40.585, 1583739640585
53, -26180.53, -30924.35, -20013.44, -16065.79, -19885.83, -20905.61, -23702.55, -22356.84, 0.000, 0.000, 0.000, 10:40:40.585, 1583739640585
54, -26263.52, -30905.02, -20049.60, -16092.94, -20018.47, -20915.13, -23726.06, -22427.87, 0.000, 0.000, 0.000, 10:40:40.585, 1583739640585
55, -25760.96, -30860.58, -19949.69, -15999.51, -19475.39, -20871.23, -23467.56, -22175.84, 0.000, 0.000, 0.000, 10:40:40.585, 1583739640585
56, -25388.25, -30847.89, -19859.21, -15917.66, -19011.37, -20835.58, -23308.82, -21959.74, 0.000, 0.000, 0.000, 10:40:40.586, 1583739640586
57, -25758.60, -30899.32, -19917.91, -15941.67, -19334.39, -20848.57, -23514.93, -22111.28, 0.000, 0.000, 0.000, 10:40:40.586, 1583739640586
58, -26182.23, -30929.07, -20004.56, -16044.73, -19886.53, -20895.48, -23703.13, -22349.22, 0.000, 0.000, 0.000, 10:40:40.586, 1583739640586
59, -26271.72, -30926.34, -20032.08, -16070.72, -20016.30, -20901.38, -23722.08, -22418.31, 0.000, 0.000, 0.000, 10:40:40.586, 1583739640586
60, -25763.56, -30859.87, -19936.50, -15986.50, -19474.54, -20861.33, -23463.77, -22169.00, 0.000, 0.000, 0.000, 10:40:40.586, 1583739640586
61, -25383.24, -30824.71, -19852.08, -15910.04, -19012.15, -20827.76, -23306.01, -21952.79, 0.000, 0.000, 0.000, 10:40:40.587, 1583739640587
62, -25757.88, -30896.12, -19917.82, -15942.25, -19335.96, -20845.84, -23515.20, -22107.69, 0.002, -0.018, 0.964, 10:40:40.587, 1583739640587
63, -26183.66, -30924.69, -20010.44, -16054.59, -19890.24, -20899.71, -23704.85, -22349.66, 0.000, 0.000, 0.000, 10:40:40.587, 1583739640587
64, -26265.51, -30915.28, -20038.94, -16075.98, -20022.07, -20900.15, -23723.25, -22417.44, 0.000, 0.000, 0.000, 10:40:40.587, 1583739640587
65, -25767.47, -30859.89, -19947.50, -15995.06, -19487.46, -20861.26, -23468.91, -22172.04, 0.000, 0.000, 0.000, 10:40:40.587, 1583739640587
66, -25381.50, -30837.74, -19863.10, -15918.93, -19018.45, -20828.96, -23306.19, -21952.61, 0.000, 0.000, 0.000, 10:40:40.587, 1583739640587
67, -25752.38, -30899.72, -19921.53, -15948.33, -19331.08, -20845.21, -23512.16, -22103.57, 0.000, 0.000, 0.000, 10:40:40.588, 1583739640588
68, -26176.69, -30923.17, -20008.41, -16053.78, -19880.83, -20895.30, -23701.39, -22342.78, 0.000, 0.000, 0.000, 10:40:40.588, 1583739640588
69, -26258.11, -30915.97, -20033.26, -16070.75, -20014.53, -20894.99, -23719.94, -22410.86, 0.000, 0.000, 0.000, 10:40:40.588, 1583739640588
70, -25765.82, -30854.30, -19944.44, -15992.07, -19482.36, -20859.45, -23466.29, -22168.26, 0.000, 0.000, 0.000, 10:40:40.588, 1583739640588
71, -25381.95, -30819.19, -19867.59, -15930.29, -19021.04, -20838.11, -23309.49, -21957.97, 0.000, 0.000, 0.000, 10:40:40.588, 1583739640588
72, -25742.68, -30885.46, -19920.28, -15954.21, -19330.35, -20851.85, -23510.50, -22106.01, 0.002, -0.014, 0.966, 10:40:40.588, 1583739640588
73, -26170.92, -30922.10, -20008.34, -16063.68, -19881.38, -20904.33, -23699.58, -22347.38, 0.000, 0.000, 0.000, 10:40:40.589, 1583739640589
74, -26267.17, -30919.01, -20041.94, -16092.34, -20025.84, -20912.83, -23724.83, -22425.55, 0.000, 0.000, 0.000, 10:40:40.589, 1583739640589
75, -25769.86, -30862.15, -19946.56, -16013.33, -19496.06, -20875.90, -23469.06, -22184.71, 0.000, 0.000, 0.000, 10:40:40.589, 1583739640589
76, -25376.07, -30831.19, -19862.70, -15935.85, -19021.96, -20845.17, -23304.24, -21963.47, 0.000, 0.000, 0.000, 10:40:40.589, 1583739640589
77, -25740.69, -30892.32, -19924.48, -15954.25, -19327.57, -20857.69, -23508.02, -22108.51, 0.000, 0.000, 0.000, 10:40:40.590, 1583739640590
78, -26166.81, -30927.71, -20006.78, -16053.56, -19876.13, -20905.41, -23696.60, -22347.50, 0.000, 0.000, 0.000, 10:40:40.590, 1583739640590
79, -26264.10, -30919.26, -20037.73, -16080.94, -20024.97, -20909.81, -23722.49, -22424.61, 0.000, 0.000, 0.000, 10:40:40.590, 1583739640590
80, -25773.51, -30863.11, -19942.72, -15996.20, -19495.79, -20867.63, -23470.20, -22180.69, 0.000, 0.000, 0.000, 10:40:40.590, 1583739640590
81, -25377.19, -30837.18, -19862.41, -15929.06, -19023.48, -20842.38, -23308.02, -21962.02, 0.000, 0.000, 0.000, 10:40:40.590, 1583739640590
82, -25730.19, -30878.24, -19921.93, -15957.22, -19322.21, -20857.22, -23510.26, -22107.30, 0.006, -0.010, 0.972, 10:40:40.591, 1583739640591
83, -26155.21, -30902.83, -20012.61, -16066.03, -19878.61, -20907.66, -23702.44, -22348.08, 0.000, 0.000, 0.000, 10:40:40.591, 1583739640591
84, -26268.37, -30923.95, -20048.13, -16088.87, -20031.95, -20912.04, -23730.67, -22425.68, 0.000, 0.000, 0.000, 10:40:40.591, 1583739640591
85, -25783.52, -30862.86, -19953.20, -16002.64, -19506.75, -20870.58, -23479.84, -22185.02, 0.000, 0.000, 0.000, 10:40:40.591, 1583739640591
86, -25380.43, -30840.29, -19861.63, -15928.88, -19024.24, -20840.43, -23307.17, -21961.57, 0.000, 0.000, 0.000, 10:40:40.592, 1583739640592
87, -25733.41, -30898.54, -19916.81, -15951.93, -19316.89, -20853.30, -23505.16, -22104.51, 0.000, 0.000, 0.000, 10:40:40.592, 1583739640592
88, -26157.96, -30915.52, -20002.02, -16049.27, -19870.37, -20897.40, -23697.01, -22340.66, 0.000, 0.000, 0.000, 10:40:40.592, 1583739640592
89, -26263.28, -30915.37, -20036.64, -16076.20, -20027.63, -20903.78, -23727.20, -22420.23, 0.000, 0.000, 0.000, 10:40:40.592, 1583739640592
90, -25780.12, -30863.76, -19951.68, -15999.31, -19512.96, -20868.97, -23482.03, -22185.04, 0.000, 0.000, 0.000, 10:40:41.044, 1583739641044
91, -25370.50, -30832.69, -19869.52, -15930.02, -19031.71, -20842.64, -23311.57, -21962.18, 0.000, 0.000, 0.000, 10:40:41.045, 1583739641045
92, -25728.24, -30887.49, -19927.94, -15954.92, -19323.35, -20858.22, -23510.88, -22105.23, 0.006, -0.014, 0.976, 10:40:41.045, 1583739641045
93, -26164.75, -30920.98, -20009.93, -16059.53, -19874.21, -20907.26, -23702.04, -22346.89, 0.000, 0.000, 0.000, 10:40:41.045, 1583739641045
94, -26273.33, -30919.79, -20048.71, -16096.88, -20040.08, -20920.72, -23738.94, -22435.36, 0.000, 0.000, 0.000, 10:40:41.045, 1583739641045
95, -25797.02, -30864.09, -19964.82, -16025.35, -19527.51, -20888.13, -23495.95, -22205.41, 0.000, 0.000, 0.000, 10:40:41.045, 1583739641045
96, -25379.33, -30847.06, -19867.39, -15936.32, -19030.34, -20848.90, -23314.75, -21970.00, 0.000, 0.000, 0.000, 10:40:41.045, 1583739641045
97, -25722.59, -30899.77, -19914.04, -15943.88, -19306.59, -20853.33, -23504.63, -22102.32, 0.000, 0.000, 0.000, 10:40:41.045, 1583739641045
98, -26166.67, -30921.47, -20005.73, -16050.03, -19864.82, -20904.96, -23700.07, -22346.36, 0.000, 0.000, 0.000, 10:40:41.046, 1583739641046
99, -26273.31, -30916.69, -20046.29, -16084.45, -20037.42, -20914.50, -23733.66, -22431.94, 0.000, 0.000, 0.000, 10:40:41.046, 1583739641046
100, -25795.41, -30860.22, -19956.31, -16004.72, -19525.46, -20876.33, -23485.74, -22198.21, 0.000, 0.000, 0.000, 10:40:41.046, 1583739641046
101, -25376.36, -30826.77, -19861.85, -15928.66, -19025.96, -20842.49, -23301.67, -21962.69, 0.000, 0.000, 0.000, 10:40:41.046, 1583739641046
102, -25721.09, -30892.70, -19921.55, -15955.64, -19312.80, -20859.03, -23499.15, -22101.16, 0.000, 0.000, 0.000, 10:40:41.046, 1583739641046
103, -26152.12, -30920.91, -20018.76, -16071.64, -19875.93, -20916.58, -23701.86, -22348.30, 0.008, -0.020, 0.972, 10:40:41.051, 1583739641051
104, -26264.95, -30915.52, -20053.47, -16100.03, -20044.40, -20922.97, -23737.19, -22433.42, 0.000, 0.000, 0.000, 10:40:41.051, 1583739641051
105, -25790.87, -30867.58, -19956.64, -16007.29, -19526.82, -20874.90, -23486.45, -22193.29, 0.000, 0.000, 0.000, 10:40:41.051, 1583739641051
106, -25368.42, -30828.66, -19866.65, -15929.01, -19029.02, -20841.62, -23305.63, -21958.49, 0.000, 0.000, 0.000, 10:40:41.051, 1583739641051
107, -25707.05, -30875.74, -19923.94, -15950.70, -19306.43, -20856.03, -23499.73, -22094.03, 0.000, 0.000, 0.000, 10:40:41.051, 1583739641051
108, -26144.88, -30922.36, -20006.02, -16046.12, -19859.10, -20901.34, -23694.77, -22333.57, 0.000, 0.000, 0.000, 10:40:41.051, 1583739641051
109, -26259.52, -30923.95, -20041.11, -16079.58, -20036.64, -20909.70, -23731.18, -22422.69, 0.000, 0.000, 0.000, 10:40:41.052, 1583739641052
110, -25795.81, -30876.34, -19963.15, -16008.81, -19540.07, -20878.94, -23494.16, -22199.44, 0.000, 0.000, 0.000, 10:40:41.052, 1583739641052
111, -25382.44, -30841.41, -19877.09, -15934.51, -19041.81, -20850.11, -23313.27, -21967.43, 0.000, 0.000, 0.000, 10:40:41.052, 1583739641052
112, -25716.20, -30887.45, -19924.17, -15952.64, -19307.15, -20859.97, -23502.17, -22098.90, 0.000, 0.000, 0.000, 10:40:41.052, 1583739641052
113, -26155.70, -30917.07, -20012.63, -16059.44, -19862.01, -20912.22, -23702.64, -22345.89, 0.006, -0.022, 0.970, 10:40:41.052, 1583739641052
114, -26274.14, -30917.31, -20047.88, -16092.12, -20041.82, -20920.09, -23740.44, -22437.22, 0.000, 0.000, 0.000, 10:40:41.052, 1583739641052
115, -25807.41, -30859.13, -19959.35, -16014.29, -19539.13, -20882.36, -23498.66, -22209.70, 0.000, 0.000, 0.000, 10:40:41.052, 1583739641052
116, -25377.81, -30830.86, -19871.86, -15937.08, -19034.79, -20851.09, -23313.70, -21973.82, 0.000, 0.000, 0.000, 10:40:41.052, 1583739641052
117, -25709.45, -30897.04, -19926.20, -15954.05, -19301.16, -20861.24, -23502.54, -22102.50, 0.000, 0.000, 0.000, 10:40:41.053, 1583739641053
118, -26151.56, -30923.79, -20015.81, -16065.81, -19863.03, -20915.17, -23704.20, -22347.81, 0.000, 0.000, 0.000, 10:40:41.053, 1583739641053
119, -26278.72, -30920.93, -20050.54, -16094.10, -20045.09, -20920.54, -23742.85, -22436.86, 0.000, 0.000, 0.000, 10:40:41.053, 1583739641053
120, -25813.76, -30868.18, -19962.25, -16008.90, -19544.52, -20876.71, -23500.29, -22205.59, 0.000, 0.000, 0.000, 10:40:41.053, 1583739641053
121, -25383.51, -30849.97, -19870.28, -15931.70, -19035.08, -20845.28, -23311.30, -21967.49, 0.000, 0.000, 0.000, 10:40:41.053, 1583739641053
122, -25705.96, -30895.83, -19917.10, -15944.42, -19292.33, -20851.27, -23494.52, -22090.34, 0.000, 0.000, 0.000, 10:40:41.053, 1583739641053
123, -26144.03, -30926.86, -20010.49, -16052.06, -19853.47, -20904.33, -23695.57, -22336.01, 0.004, -0.020, 0.970, 10:40:41.053, 1583739641053
124, -26266.65, -30925.56, -20041.94, -16077.59, -20038.07, -20906.37, -23730.67, -22423.02, 0.000, 0.000, 0.000, 10:40:41.053, 1583739641053
125, -25817.58, -30869.97, -19949.20, -15990.59, -19539.43, -20861.64, -23486.47, -22192.85, 0.000, 0.000, 0.000, 10:40:41.054, 1583739641054
126, -25376.29, -30829.07, -19855.03, -15911.45, -19023.28, -20827.82, -23293.49, -21949.75, 0.000, 0.000, 0.000, 10:40:41.054, 1583739641054
127, -25695.95, -30877.88, -19909.37, -15930.18, -19281.55, -20840.43, -23481.83, -22074.89, 0.000, 0.000, 0.000, 10:40:41.054, 1583739641054
128, -26140.07, -30907.54, -20002.96, -16039.21, -19844.86, -20893.87, -23685.23, -22320.92, 0.000, 0.000, 0.000, 10:40:41.054, 1583739641054
129, -26270.16, -30909.13, -20045.02, -16081.12, -20039.32, -20906.90, -23729.88, -22419.34, 0.000, 0.000, 0.000, 10:40:41.054, 1583739641054
130, -25811.06, -30848.36, -19959.15, -16003.16, -19548.01, -20869.31, -23493.05, -22196.80, 0.000, 0.000, 0.000, 10:40:41.054, 1583739641054
131, -25366.19, -30818.49, -19866.32, -15927.67, -19031.15, -20838.73, -23300.84, -21956.27, 0.000, 0.000, 0.000, 10:40:41.054, 1583739641054
132, -25686.94, -30891.03, -19917.01, -15942.58, -19280.90, -20847.90, -23483.48, -22078.29, 0.000, 0.000, 0.000, 10:40:41.054, 1583739641054
133, -26137.32, -30930.14, -20003.74, -16044.06, -19839.54, -20898.34, -23684.82, -22324.45, 0.000, -0.022, 0.976, 10:40:41.055, 1583739641055
134, -26278.03, -30934.75, -20042.12, -16086.68, -20038.00, -20914.48, -23730.76, -22427.22, 0.000, 0.000, 0.000, 10:40:41.055, 1583739641055
135, -25821.31, -30873.68, -19956.84, -16009.46, -19553.39, -20876.35, -23492.17, -22204.58, 0.000, 0.000, 0.000, 10:40:41.055, 1583739641055
136, -25370.84, -30831.53, -19860.51, -15924.48, -19030.21, -20839.85, -23294.52, -21959.20, 0.000, 0.000, 0.000, 10:40:41.055, 1583739641055
137, -25689.82, -30886.18, -19910.53, -15936.82, -19274.09, -20848.19, -23477.33, -22078.09, 0.000, 0.000, 0.000, 10:40:41.055, 1583739641055
138, -26143.36, -30925.07, -20004.52, -16048.71, -19838.98, -20903.60, -23686.41, -22328.16, 0.000, 0.000, 0.000, 10:40:41.055, 1583739641055
139, -26279.04, -30922.56, -20037.73, -16080.45, -20038.76, -20910.64, -23731.32, -22426.69, 0.000, 0.000, 0.000, 10:40:41.055, 1583739641055
140, -25828.38, -30860.07, -19952.44, -15999.31, -19555.56, -20869.62, -23496.78, -22206.08, 0.000, 0.000, 0.000, 10:40:41.055, 1583739641055
141, -25378.75, -30823.90, -19861.25, -15926.13, -19031.46, -20839.74, -23301.00, -21961.97, 0.000, 0.000, 0.000, 10:40:41.056, 1583739641056
142, -25689.39, -30875.45, -19912.47, -15943.86, -19276.75, -20853.30, -23484.06, -22084.01, 0.000, 0.000, 0.000, 10:40:41.056, 1583739641056
143, -26137.59, -30918.07, -20002.42, -16047.08, -19840.44, -20903.06, -23687.04, -22329.15, 0.000, -0.020, 0.976, 10:40:41.056, 1583739641056
144, -26279.55, -30925.36, -20048.53, -16091.62, -20049.74, -20918.37, -23735.79, -22434.27, 0.000, 0.000, 0.000, 10:40:41.056, 1583739641056
145, -25834.91, -30884.95, -19970.46, -16015.85, -19576.80, -20881.33, -23505.23, -22219.13, 0.000, 0.000, 0.000, 10:40:41.056, 1583739641056
146, -25379.00, -30843.15, -19869.09, -15922.06, -19044.60, -20839.40, -23303.08, -21964.05, 0.000, 0.000, 0.000, 10:40:41.056, 1583739641056
147, -25684.97, -30888.10, -19907.96, -15926.44, -19271.92, -20841.15, -23475.79, -22072.66, 0.000, 0.000, 0.000, 10:40:41.057, 1583739641057
148, -26134.53, -30922.95, -19996.67, -16036.68, -19832.66, -20893.22, -23679.21, -22319.65, 0.000, 0.000, 0.000, 10:40:41.057, 1583739641057
149, -26273.60, -30924.29, -20039.32, -16074.66, -20042.05, -20904.78, -23728.07, -22421.41, 0.000, 0.000, 0.000, 10:40:41.057, 1583739641057
150, -25829.83, -30866.10, -19957.07, -15996.05, -19566.16, -20864.84, -23497.47, -22203.35, 0.000, 0.000, 0.000, 10:40:41.057, 1583739641057
151, -25369.79, -30829.40, -19863.48, -15916.23, -19036.02, -20831.45, -23296.96, -21954.46, 0.000, 0.000, 0.000, 10:40:41.057, 1583739641057
152, -25669.44, -30888.21, -19909.99, -15928.95, -19265.24, -20840.83, -23472.86, -22068.03, 0.000, 0.000, 0.000, 10:40:41.058, 1583739641058
153, -26122.15, -30909.36, -19993.03, -16028.75, -19821.46, -20884.71, -23671.12, -22307.76, -0.004, -0.020, 0.976, 10:40:41.058, 1583739641058
154, -26270.50, -30905.62, -20033.20, -16071.42, -20035.70, -20899.89, -23723.29, -22414.26, 0.000, 0.000, 0.000, 10:40:41.058, 1583739641058
155, -25838.73, -30865.57, -19961.38, -16004.05, -19572.15, -20869.40, -23499.64, -22207.87, 0.000, 0.000, 0.000, 10:40:41.058, 1583739641058
156, -25372.78, -30829.51, -19859.70, -15917.66, -19034.01, -20829.95, -23290.00, -21952.47, 0.000, 0.000, 0.000, 10:40:41.059, 1583739641059
157, -25671.18, -30868.41, -19895.09, -15925.37, -19250.71, -20833.93, -23459.32, -22061.60, 0.000, 0.000, 0.000, 10:40:41.060, 1583739641060
158, -26123.42, -30908.79, -19986.17, -16033.11, -19815.29, -20887.77, -23665.94, -22310.53, 0.000, 0.000, 0.000, 10:40:41.060, 1583739641060
159, -26272.04, -30913.96, -20027.12, -16072.49, -20029.49, -20897.92, -23716.00, -22413.75, 0.000, 0.000, 0.000, 10:40:41.062, 1583739641062
160, -25837.14, -30861.95, -19952.06, -16000.41, -19568.08, -20864.06, -23494.92, -22205.50, 0.000, 0.000, 0.000, 10:40:41.062, 1583739641062
161, -25375.20, -30832.20, -19861.11, -15928.75, -19038.37, -20838.51, -23295.48, -21960.01, 0.000, 0.000, 0.000, 10:40:41.062, 1583739641062
162, -25672.39, -30884.46, -19905.72, -15935.90, -19257.64, -20845.93, -23470.27, -22068.03, 0.000, 0.000, 0.000, 10:40:41.063, 1583739641063
163, -26122.88, -30909.94, -19996.79, -16038.16, -19822.11, -20895.97, -23676.46, -22311.31, -0.004, -0.020, 0.970, 10:40:41.063, 1583739641063
164, -26272.78, -30912.44, -20039.79, -16075.44, -20045.13, -20904.24, -23730.11, -22416.38, 0.000, 0.000, 0.000, 10:40:41.064, 1583739641064
165, -25845.57, -30867.18, -19960.15, -16000.52, -19581.31, -20866.45, -23506.26, -22207.11, 0.000, 0.000, 0.000, 10:40:41.065, 1583739641065
166, -25370.71, -30819.61, -19857.18, -15918.42, -19037.70, -20831.98, -23295.35, -21950.44, 0.000, 0.000, 0.000, 10:40:41.066, 1583739641066
167, -25665.77, -30875.07, -19900.00, -15929.69, -19251.69, -20842.58, -23468.04, -22059.90, 0.000, 0.000, 0.000, 10:40:41.066, 1583739641066
168, -26117.21, -30910.03, -19993.68, -16037.06, -19816.90, -20894.95, -23676.24, -22308.78, 0.000, 0.000, 0.000, 10:40:41.080, 1583739641080
169, -26276.96, -30915.52, -20043.90, -16082.24, -20049.38, -20911.11, -23735.92, -22423.04, 0.000, 0.000, 0.000, 10:40:41.081, 1583739641081
170, -25851.04, -30869.72, -19966.72, -16008.27, -19592.51, -20874.76, -23512.85, -22217.59, 0.000, 0.000, 0.000, 10:40:41.081, 1583739641081
171, -25374.50, -30821.36, -19861.69, -15914.60, -19043.02, -20833.88, -23297.87, -21956.16, 0.000, 0.000, 0.000, 10:40:41.081, 1583739641081
172, -25658.75, -30872.72, -19900.76, -15915.13, -19244.79, -20836.23, -23463.12, -22056.63, 0.000, 0.000, 0.000, 10:40:41.081, 1583739641081
173, -26112.09, -30910.05, -19992.67, -16020.48, -19806.84, -20886.38, -23669.18, -22302.50, -0.002, -0.020, 0.972, 10:40:41.081, 1583739641081
174, -26271.84, -30918.45, -20039.88, -16069.90, -20042.72, -20903.60, -23730.31, -22417.32, 0.000, 0.000, 0.000, 10:40:41.081, 1583739641081
175, -25853.14, -30865.61, -19964.85, -16001.77, -19591.17, -20871.66, -23512.56, -22217.54, 0.000, 0.000, 0.000, 10:40:41.082, 1583739641082
176, -25375.02, -30820.02, -19866.59, -15923.54, -19043.48, -20841.53, -23300.96, -21963.47, 0.000, 0.000, 0.000, 10:40:41.082, 1583739641082
177, -25657.43, -30876.77, -19908.27, -15935.52, -19249.59, -20849.97, -23469.11, -22068.57, 0.000, 0.000, 0.000, 10:40:41.082, 1583739641082
178, -26110.95, -30912.89, -19994.13, -16037.42, -19809.84, -20897.65, -23671.57, -22314.33, 0.000, 0.000, 0.000, 10:40:41.082, 1583739641082
179, -26279.97, -30919.57, -20031.99, -16075.40, -20040.06, -20907.06, -23723.92, -22424.25, 0.000, 0.000, 0.000, 10:40:41.082, 1583739641082
180, -25868.75, -30873.81, -19951.55, -15998.44, -19587.50, -20867.50, -23502.54, -22220.09, 0.000, 0.000, 0.000, 10:40:41.083, 1583739641083
181, -25383.85, -30825.20, -19851.84, -15917.82, -19036.22, -20834.37, -23289.04, -21961.68, 0.000, 0.000, 0.000, 10:40:41.083, 1583739641083
182, -25657.43, -30879.65, -19896.65, -15928.25, -19235.11, -20842.22, -23458.11, -22061.35, 0.000, 0.000, 0.000, 10:40:41.083, 1583739641083
183, -26119.35, -30919.86, -19994.30, -16038.07, -19804.34, -20895.48, -23669.38, -22308.18, 0.006, -0.024, 0.970, 10:40:41.083, 1583739641083
184, -26280.31, -30918.14, -20039.59, -16074.06, -20040.13, -20903.46, -23728.19, -22417.77, 0.000, 0.000, 0.000, 10:40:41.083, 1583739641083
185, -25862.35, -30872.61, -19956.51, -15996.58, -19590.54, -20862.56, -23507.96, -22214.04, 0.000, 0.000, 0.000, 10:40:41.083, 1583739641083
186, -25372.83, -30827.59, -19852.75, -15911.67, -19036.09, -20826.21, -23288.73, -21951.22, 0.000, 0.000, 0.000, 10:40:41.083, 1583739641083
187, -25643.84, -30878.02, -19894.37, -15914.64, -19228.36, -20829.17, -23447.76, -22043.83, 0.000, 0.000, 0.000, 10:40:41.084, 1583739641084
188, -26102.95, -30901.78, -19989.72, -16021.33, -19794.50, -20880.24, -23658.65, -22289.18, 0.000, 0.000, 0.000, 10:40:41.084, 1583739641084
189, -26269.31, -30901.33, -20035.30, -16069.81, -20038.05, -20896.24, -23722.33, -22404.76, 0.000, 0.000, 0.000, 10:40:41.084, 1583739641084
190, -25858.33, -30849.63, -19962.90, -16001.10, -19600.04, -20860.50, -23508.00, -22207.04, 0.000, 0.000, 0.000, 10:40:41.084, 1583739641084
191, -25375.40, -30820.82, -19866.03, -15921.26, -19044.74, -20828.72, -23291.41, -21948.85, 0.000, 0.000, 0.000, 10:40:41.084, 1583739641084
192, -25639.28, -30874.51, -19901.34, -15920.03, -19229.16, -20830.24, -23451.14, -22041.41, 0.000, 0.000, 0.000, 10:40:41.084, 1583739641084
193, -26107.15, -30920.78, -19988.47, -16022.98, -19792.51, -20878.45, -23661.27, -22288.58, 0.000, 0.000, 0.000, 10:40:41.084, 1583739641084
194, -26283.97, -30923.10, -20029.73, -16067.35, -20037.91, -20892.89, -23722.91, -22406.30, 0.004, -0.026, 0.972, 10:40:41.086, 1583739641086
195, -25877.11, -30864.67, -19954.56, -15990.73, -19599.15, -20855.90, -23508.98, -22210.14, 0.000, 0.000, 0.000, 10:40:41.086, 1583739641086
196, -25385.08, -30815.50, -19855.34, -15914.02, -19043.89, -20826.44, -23292.37, -21951.18, 0.000, 0.000, 0.000, 10:40:41.086, 1583739641086
197, -25648.69, -30883.29, -19897.61, -15929.98, -19230.17, -20841.46, -23455.81, -22051.25, 0.000, 0.000, 0.000, 10:40:41.086, 1583739641086
198, -26114.41, -30926.43, -19989.63, -16035.68, -19797.92, -20895.21, -23669.60, -22303.71, 0.000, 0.000, 0.000, 10:40:41.087, 1583739641087
199, -26286.19, -30929.27, -20038.16, -16077.61, -20049.02, -20909.88, -23734.76, -22422.24, 0.000, 0.000, 0.000, 10:40:41.087, 1583739641087
200, -25880.35, -30878.69, -19963.77, -15997.90, -19613.45, -20867.74, -23522.60, -22223.13, 0.000, 0.000, 0.000, 10:40:41.087, 1583739641087
201, -25391.45, -30836.13, -19856.87, -15914.80, -19047.87, -20830.53, -23298.54, -21958.38, 0.000, 0.000, 0.000, 10:40:41.087, 1583739641087
202, -25648.65, -30878.02, -19891.62, -15916.81, -19220.46, -20831.80, -23452.50, -22044.45, 0.000, 0.000, 0.000, 10:40:41.087, 1583739641087
203, -26105.34, -30899.79, -19986.33, -16021.55, -19788.58, -20882.12, -23666.45, -22291.06, 0.000, 0.000, 0.000, 10:40:41.087, 1583739641087
204, -26281.45, -30929.18, -20039.59, -16079.89, -20048.11, -20906.44, -23734.02, -22417.88, 0.002, -0.026, 0.974, 10:40:41.087, 1583739641087
205, -25879.74, -30873.75, -19959.19, -15994.97, -19612.49, -20861.04, -23516.40, -22220.67, 0.000, 0.000, 0.000, 10:40:41.087, 1583739641087
206, -25380.05, -30818.18, -19855.26, -15909.32, -19043.37, -20823.94, -23288.44, -21952.90, 0.000, 0.000, 0.000, 10:40:41.087, 1583739641087
207, -25633.22, -30876.59, -19894.35, -15916.59, -19214.32, -20829.95, -23442.64, -22041.26, 0.000, 0.000, 0.000, 10:40:41.087, 1583739641087
208, -26103.42, -30915.26, -19986.01, -16025.04, -19779.19, -20881.69, -23654.45, -22290.32, 0.000, 0.000, 0.000, 10:40:41.088, 1583739641088
209, -26282.68, -30910.23, -20030.43, -16070.55, -20037.36, -20896.85, -23720.59, -22411.33, 0.000, 0.000, 0.000, 10:40:41.088, 1583739641088
210, -25883.36, -30858.95, -19953.89, -15992.52, -19609.70, -20854.94, -23505.92, -22216.76, 0.000, 0.000, 0.000, 10:40:41.523, 1583739641523
211, -25381.77, -30818.63, -19850.34, -15908.36, -19041.50, -20819.62, -23277.84, -21948.54, 0.000, 0.000, 0.000, 10:40:41.524, 1583739641524
212, -25626.63, -30872.32, -19886.73, -15911.42, -19205.60, -20825.25, -23428.92, -22033.81, 0.000, 0.000, 0.000, 10:40:41.524, 1583739641524
213, -26091.82, -30910.45, -19980.67, -16018.24, -19774.39, -20878.74, -23646.45, -22285.16, 0.000, 0.000, 0.000, 10:40:41.524, 1583739641524
214, -26275.53, -30907.46, -20031.12, -16067.33, -20039.25, -20895.39, -23715.96, -22408.88, -0.002, -0.022, 0.974, 10:40:41.525, 1583739641525
215, -25889.73, -30869.52, -19962.74, -15997.23, -19622.08, -20860.68, -23510.57, -22221.12, 0.000, 0.000, 0.000, 10:40:41.525, 1583739641525
216, -25387.47, -30828.78, -19855.39, -15910.82, -19048.63, -20823.15, -23280.26, -21949.57, 0.000, 0.000, 0.000, 10:40:41.525, 1583739641525
217, -25633.81, -30884.25, -19884.49, -15909.05, -19203.88, -20825.14, -23429.70, -22029.48, 0.000, 0.000, 0.000, 10:40:41.525, 1583739641525
218, -26095.17, -30919.37, -19980.47, -16020.10, -19769.83, -20878.92, -23647.34, -22279.93, 0.000, 0.000, 0.000, 10:40:41.525, 1583739641525
219, -26284.62, -30927.91, -20034.70, -16082.62, -20042.27, -20904.24, -23724.12, -22411.85, 0.000, 0.000, 0.000, 10:40:41.526, 1583739641526
220, -25898.05, -30862.15, -19955.66, -15997.61, -19622.30, -20857.37, -23514.93, -22220.40, 0.000, 0.000, 0.000, 10:40:41.532, 1583739641532
221, -25382.13, -30811.28, -19849.94, -15902.57, -19046.17, -20816.65, -23284.73, -21947.04, 0.000, 0.000, 0.000, 10:40:41.532, 1583739641532
222, -25627.37, -30876.95, -19891.04, -15909.48, -19205.78, -20826.71, -23439.85, -22030.86, 0.000, 0.000, 0.000, 10:40:41.532, 1583739641532
223, -26095.66, -30908.04, -19986.93, -16016.68, -19777.58, -20880.64, -23658.02, -22280.84, 0.000, 0.000, 0.000, 10:40:41.533, 1583739641533
224, -26285.11, -30911.39, -20037.91, -16071.40, -20047.86, -20901.00, -23727.94, -22409.66, 0.000, -0.018, 0.972, 10:40:41.533, 1583739641533
225, -25904.35, -30863.42, -19970.41, -16005.26, -19640.01, -20868.19, -23528.27, -22229.41, 0.000, 0.000, 0.000, 10:40:41.533, 1583739641533
226, -25389.77, -30823.99, -19865.38, -15920.75, -19061.37, -20831.85, -23296.13, -21956.61, 0.000, 0.000, 0.000, 10:40:41.533, 1583739641533
227, -25618.76, -30877.41, -19892.61, -15907.65, -19201.62, -20825.68, -23435.40, -22025.16, 0.000, 0.000, 0.000, 10:40:41.534, 1583739641534
228, -26086.23, -30908.71, -19989.92, -16011.94, -19770.27, -20878.18, -23654.11, -22276.11, 0.000, 0.000, 0.000, 10:40:41.534, 1583739641534
229, -26281.11, -30915.50, -20042.18, -16074.50, -20047.48, -20901.81, -23728.30, -22410.08, 0.000, 0.000, 0.000, 10:40:41.534, 1583739641534
230, -25904.22, -30872.45, -19970.32, -16004.25, -19641.28, -20864.50, -23523.47, -22226.84, 0.000, 0.000, 0.000, 10:40:41.534, 1583739641534
231, -25388.14, -30815.19, -19855.21, -15908.83, -19054.77, -20820.85, -23285.20, -21946.98, 0.000, 0.000, 0.000, 10:40:41.534, 1583739641534
232, -25616.44, -30868.23, -19888.60, -15910.33, -19195.48, -20826.17, -23431.65, -22024.38, 0.000, 0.000, 0.000, 10:40:41.535, 1583739641535
233, -26079.72, -30912.80, -19990.53, -16022.22, -19766.52, -20883.39, -23651.41, -22280.04, 0.000, 0.000, 0.000, 10:40:41.535, 1583739641535
234, -26281.20, -30908.24, -20038.94, -16077.09, -20045.42, -20903.53, -23723.56, -22412.16, 0.000, -0.018, 0.970, 10:40:41.535, 1583739641535
235, -25913.36, -30869.70, -19965.11, -16003.56, -19638.06, -20865.33, -23519.55, -22230.71, 0.000, 0.000, 0.000, 10:40:41.535, 1583739641535
236, -25393.79, -30827.73, -19856.06, -15918.24, -19054.06, -20829.05, -23284.06, -21956.21, 0.000, 0.000, 0.000, 10:40:41.535, 1583739641535
237, -25618.25, -30867.67, -19883.69, -15907.94, -19187.50, -20825.99, -23423.49, -22024.92, 0.000, 0.000, 0.000, 10:40:41.536, 1583739641536
238, -26086.99, -30919.37, -19973.76, -16007.85, -19749.91, -20873.71, -23638.73, -22272.30, 0.000, 0.000, 0.000, 10:40:41.536, 1583739641536
239, -26284.71, -30928.35, -20026.65, -16066.79, -20033.85, -20896.15, -23714.13, -22406.24, 0.000, 0.000, 0.000, 10:40:41.536, 1583739641536
240, -25912.40, -30870.28, -19963.82, -16001.32, -19639.56, -20861.87, -23518.33, -22229.68, 0.000, 0.000, 0.000, 10:40:41.536, 1583739641536
241, -25390.06, -30818.49, -19860.17, -15918.49, -19056.61, -20828.63, -23284.95, -21956.21, 0.000, 0.000, 0.000, 10:40:41.536, 1583739641536
242, -25609.44, -30863.22, -19886.88, -15911.22, -19185.82, -20826.66, -23423.35, -22023.46, 0.000, 0.000, 0.000, 10:40:41.536, 1583739641536
243, -26085.51, -30915.68, -19975.82, -16011.87, -19752.06, -20877.02, -23641.30, -22274.25, 0.000, 0.000, 0.000, 10:40:41.537, 1583739641537
244, -26284.00, -30926.21, -20028.82, -16066.86, -20038.23, -20897.85, -23717.28, -22407.60, 0.000, -0.018, 0.976, 10:40:41.537, 1583739641537
245, -25926.23, -30876.68, -19972.38, -16004.32, -19653.29, -20868.77, -23530.04, -22236.88, 0.000, 0.000, 0.000, 10:40:41.537, 1583739641537
246, -25398.78, -30815.68, -19867.28, -15919.96, -19067.76, -20833.61, -23292.35, -21960.74, 0.000, 0.000, 0.000, 10:40:41.537, 1583739641537
247, -25607.12, -30852.47, -19891.67, -15909.50, -19188.79, -20830.28, -23426.44, -22024.29, 0.000, 0.000, 0.000, 10:40:41.537, 1583739641537
248, -26076.30, -30903.12, -19987.46, -16013.73, -19759.37, -20882.83, -23650.63, -22277.36, 0.000, 0.000, 0.000, 10:40:41.537, 1583739641537
249, -26279.57, -30925.63, -20039.50, -16069.54, -20047.81, -20901.76, -23726.91, -22411.67, 0.000, 0.000, 0.000, 10:40:41.537, 1583739641537
250, -25925.94, -30878.73, -19975.13, -15999.09, -19660.24, -20865.60, -23534.80, -22237.55, 0.000, 0.000, 0.000, 10:40:41.538, 1583739641538
251, -25396.14, -30816.57, -19871.06, -15916.45, -19075.18, -20833.05, -23297.47, -21961.06, 0.000, 0.000, 0.000, 10:40:41.538, 1583739641538
252, -25602.83, -30864.65, -19901.46, -15915.72, -19197.15, -20836.00, -23434.04, -22026.12, 0.000, 0.000, 0.000, 10:40:41.538, 1583739641538
253, -26071.65, -30913.51, -19992.47, -16011.31, -19758.32, -20879.57, -23649.64, -22270.52, 0.000, 0.000, 0.000, 10:40:41.538, 1583739641538
254, -26274.86, -30918.00, -20038.70, -16066.23, -20048.35, -20897.49, -23723.29, -22403.02, 0.000, -0.022, 0.964, 10:40:41.538, 1583739641538
255, -25921.70, -30867.31, -19972.29, -16001.34, -19662.14, -20861.29, -23529.17, -22230.75, 0.000, 0.000, 0.000, 10:40:41.538, 1583739641538
0, -25397.71, -30818.96, -19866.25, -15914.02, -19071.25, -20824.29, -23288.73, -21952.50, 0.000, 0.000, 0.000, 10:40:41.539, 1583739641539
1, -25596.23, -30866.78, -19884.25, -15900.00, -19178.18, -20817.65, -23416.94, -22010.63, 0.000, 0.000, 0.000, 10:40:41.539, 1583739641539
2, -26066.09, -30895.83, -19969.76, -16000.58, -19738.56, -20865.64, -23633.48, -22258.51, 0.000, 0.000, 0.000, 10:40:41.539, 1583739641539
3, -26262.20, -30883.74, -20019.83, -16061.96, -20031.88, -20886.52, -23708.47, -22393.52, 0.000, 0.000, 0.000, 10:40:41.539, 1583739641539
4, -25920.74, -30860.25, -19954.56, -15992.27, -19650.78, -20851.32, -23517.70, -22225.32, 0.000, 0.000, 0.000, 10:40:41.539, 1583739641539
5, -25393.12, -30827.32, -19850.52, -15903.42, -19056.36, -20815.62, -23278.02, -21948.88, 0.000, 0.000, 0.000, 10:40:41.539, 1583739641539
6, -25597.08, -30886.56, -19883.55, -15905.66, -19171.38, -20822.13, -23414.05, -22015.15, 0.000, 0.000, 0.000, 10:40:41.539, 1583739641539
7, -26068.53, -30918.29, -19973.94, -16006.78, -19733.17, -20870.78, -23633.08, -22263.07, 0.000, 0.000, 0.000, 10:40:41.540, 1583739641540
8, -26280.62, -30924.22, -20026.80, -16065.38, -20032.55, -20894.39, -23714.62, -22403.42, -0.004, -0.018, 0.968, 10:40:41.540, 1583739641540
9, -25931.17, -30876.05, -19967.24, -15998.17, -19661.06, -20862.22, -23528.96, -22238.62, 0.000, 0.000, 0.000, 10:40:41.540, 1583739641540
10, -25398.78, -30829.18, -19865.83, -15917.95, -19072.21, -20833.79, -23289.85, -21966.11, 0.000, 0.000, 0.000, 10:40:41.540, 1583739641540
11, -25594.22, -30873.39, -19900.07, -15921.46, -19183.47, -20841.68, -23424.09, -22029.63, 0.000, 0.000, 0.000, 10:40:41.540, 1583739641540
12, -26074.29, -30919.44, -19998.20, -16027.03, -19755.34, -20894.97, -23652.86, -22282.32, 0.000, 0.000, 0.000, 10:40:41.541, 1583739641541
13, -26283.91, -30922.56, -20043.86, -16082.01, -20055.53, -20913.30, -23731.16, -22418.29, 0.000, 0.000, 0.000, 10:40:41.541, 1583739641541
14, -25931.33, -30868.18, -19978.12, -16008.34, -19679.97, -20871.46, -23541.88, -22247.05, 0.000, 0.000, 0.000, 10:40:41.541, 1583739641541
15, -25392.90, -30821.80, -19872.47, -15924.48, -19083.18, -20836.38, -23298.77, -21966.91, 0.000, 0.000, 0.000, 10:40:41.541, 1583739641541
16, -25578.60, -30872.74, -19888.67, -15910.40, -19177.95, -20830.46, -23420.85, -22017.59, 0.000, 0.000, 0.000, 10:40:41.541, 1583739641541
17, -26064.21, -30907.03, -19980.43, -16005.19, -19740.72, -20873.82, -23639.27, -22261.40, 0.000, 0.000, 0.000, 10:40:41.541, 1583739641541
18, -26276.75, -30912.66, -20037.38, -16060.60, -20047.44, -20892.53, -23722.73, -22399.96, 0.000, -0.018, 0.964, 10:40:41.542, 1583739641542
19, -25933.10, -30875.63, -19979.08, -15998.51, -19682.92, -20860.46, -23543.40, -22238.13, 0.000, 0.000, 0.000, 10:40:41.542, 1583739641542
20, -25392.86, -30817.62, -19863.17, -15912.47, -19078.53, -20823.91, -23294.14, -21955.38, 0.000, 0.000, 0.000, 10:40:41.542, 1583739641542
21, -25586.40, -30867.82, -19885.09, -15906.55, -19171.81, -20825.01, -23418.39, -22010.90, 0.000, 0.000, 0.000, 10:40:41.542, 1583739641542
22, -26061.11, -30916.51, -19976.22, -15997.54, -19732.52, -20869.51, -23638.51, -22257.71, 0.000, 0.000, 0.000, 10:40:41.542, 1583739641542
23, -26274.83, -30920.96, -20031.01, -16060.98, -20040.66, -20892.55, -23719.98, -22400.38, 0.000, 0.000, 0.000, 10:40:41.542, 1583739641542
24, -25942.17, -30879.07, -19972.65, -16004.92, -19680.38, -20863.19, -23539.18, -22244.39, 0.000, 0.000, 0.000, 10:40:41.543, 1583739641543
25, -25394.24, -30815.46, -19860.13, -15919.94, -19076.28, -20826.19, -23287.52, -21959.27, 0.000, 0.000, 0.000, 10:40:41.543, 1583739641543
26, -25567.24, -30856.63, -19883.15, -15902.68, -19162.69, -20821.61, -23409.34, -22006.30, 0.000, 0.000, 0.000, 10:40:41.543, 1583739641543
27, -26051.72, -30919.66, -19980.27, -15997.97, -19729.55, -20870.27, -23635.45, -22257.24, 0.000, 0.000, 0.000, 10:40:41.543, 1583739641543
28, -26274.77, -30922.72, -20035.10, -16065.00, -20043.39, -20897.81, -23720.83, -22405.57, 0.000, 0.000, 0.000, 10:40:41.544, 1583739641544
29, -25944.09, -30871.89, -19977.79, -16009.97, -19685.11, -20871.95, -23542.51, -22253.22, -0.002, -0.022, 0.976, 10:40:41.544, 1583739641544
30, -25406.71, -30834.34, -19870.83, -15931.34, -19085.44, -20843.02, -23296.69, -21975.47, 0.000, 0.000, 0.000, 10:40:41.544, 1583739641544
31, -25578.38, -30880.30, -19887.02, -15920.54, -19165.73, -20840.77, -23413.76, -22023.55, 0.000, 0.000, 0.000, 10:40:41.544, 1583739641544
32, -26052.37, -30913.89, -19975.73, -16010.91, -19724.36, -20883.81, -23632.10, -22267.61, 0.000, 0.000, 0.000, 10:40:41.545, 1583739641545
33, -26274.03, -30917.92, -20032.39, -16076.58, -20040.10, -20908.89, -23720.81, -22414.82, 0.000, 0.000, 0.000, 10:40:41.545, 1583739641545
34, -25948.99, -30875.04, -19983.84, -16022.96, -19697.14, -20881.42, -23549.24, -22263.74, 0.000, 0.000, 0.000, 10:40:41.545, 1583739641545
35, -25404.68, -30828.66, -19878.21, -15935.54, -19098.94, -20846.42, -23302.56, -21979.50, 0.000, 0.000, 0.000, 10:40:41.545, 1583739641545
36, -25572.83, -30869.59, -19893.19, -15916.77, -19172.23, -20838.84, -23417.01, -22018.95, 0.000, 0.000, 0.000, 10:40:41.545, 1583739641545
37, -26055.67, -30906.92, -19988.43, -16019.38, -19734.62, -20887.88, -23644.08, -22269.49, 0.000, 0.000, 0.000, 10:40:41.546, 1583739641546
38, -26276.08, -30923.68, -20047.70, -16077.94, -20055.53, -20909.16, -23731.20, -22413.86, 0.000, 0.000, 0.000, 10:40:41.546, 1583739641546
39, -25953.68, -30878.93, -19986.17, -16008.70, -19705.54, -20872.24, -23555.32, -22258.87, 0.002, -0.018, 0.976, 10:40:41.546, 1583739641546
40, -25402.78, -30820.19, -19869.83, -15917.48, -19095.88, -20831.65, -23302.47, -21970.56, 0.000, 0.000, 0.000, 10:40:41.546, 1583739641546
41, -25566.51, -30857.79, -19888.67, -15904.14, -19165.41, -20826.48, -23416.76, -22009.31, 0.000, 0.000, 0.000, 10:40:41.546, 1583739641546
42, -26057.78, -30910.56, -19984.00, -16006.96, -19730.53, -20878.79, -23645.40, -22260.37, 0.000, 0.000, 0.000, 10:40:41.547, 1583739641547
43, -26285.23, -30928.40, -20047.86, -16083.00, -20059.82, -20911.49, -23738.27, -22414.98, 0.000, 0.000, 0.000, 10:40:41.547, 1583739641547
44, -25957.84, -30879.69, -19984.81, -16013.06, -19706.93, -20870.38, -23557.04, -22256.21, 0.000, 0.000, 0.000, 10:40:41.547, 1583739641547
45, -25404.52, -30822.05, -19867.50, -15914.64, -19091.90, -20826.39, -23298.70, -21963.79, 0.000, 0.000, 0.000, 10:40:41.547, 1583739641547
46, -25564.49, -30862.33, -19885.63, -15901.63, -19156.79, -20823.91, -23410.50, -22001.71, 0.000, 0.000, 0.000, 10:40:41.547, 1583739641547
47, -26046.13, -30895.25, -19980.58, -16000.00, -19720.05, -20874.38, -23639.96, -22251.38, 0.000, 0.000, 0.000, 10:40:41.547, 1583739641547
48, -26272.93, -30916.13, -20034.02, -16064.47, -20046.29, -20898.95, -23727.72, -22400.29, 0.000, 0.000, 0.000, 10:40:41.548, 1583739641548
49, -25956.72, -30880.86, -19979.46, -16002.02, -19707.31, -20866.96, -23554.92, -22252.64, 0.004, -0.018, 0.972, 10:40:41.548, 1583739641548
50, -25408.21, -30817.62, -19871.55, -15919.76, -19096.08, -20835.49, -23300.42, -21968.81, 0.000, 0.000, 0.000, 10:40:41.548, 1583739641548
51, -25559.64, -30866.04, -19890.97, -15912.47, -19157.43, -20837.21, -23411.24, -22008.58, 0.000, 0.000, 0.000, 10:40:41.548, 1583739641548
52, -26039.18, -30908.15, -19987.85, -16013.39, -19722.46, -20888.31, -23641.39, -22260.32, 0.000, 0.000, 0.000, 10:40:41.549, 1583739641549
53, -26273.71, -30915.21, -20043.52, -16077.41, -20049.56, -20912.04, -23730.82, -22411.49, 0.000, 0.000, 0.000, 10:40:41.549, 1583739641549
54, -25966.33, -30884.68, -19992.52, -16017.30, -19720.59, -20882.56, -23563.59, -22269.49, 0.000, 0.000, 0.000, 10:40:41.549, 1583739641549
55, -25406.42, -30819.84, -19875.71, -15930.00, -19104.73, -20844.83, -23303.88, -21979.56, 0.000, 0.000, 0.000, 10:40:41.549, 1583739641549
56, -25562.35, -30865.01, -19892.96, -15922.51, -19160.54, -20846.06, -23413.23, -22015.78, 0.000, 0.000, 0.000, 10:40:41.549, 1583739641549
57, -26043.02, -30912.73, -19987.42, -16017.97, -19722.87, -20892.42, -23640.86, -22263.90, 0.000, 0.000, 0.000, 10:40:41.549, 1583739641549
58, -26278.65, -30918.88, -20045.87, -16078.26, -20057.02, -20914.19, -23736.10, -22414.62, 0.000, 0.000, 0.000, 10:40:41.550, 1583739641550
59, -25971.09, -30878.42, -19993.23, -16013.33, -19728.81, -20878.09, -23569.18, -22267.61, 0.002, -0.020, 0.970, 10:40:41.550, 1583739641550
60, -25412.61, -30812.91, -19879.89, -15927.20, -19110.85, -20840.16, -23308.60, -21976.03, 0.000, 0.000, 0.000, 10:40:41.550, 1583739641550
61, -25556.29, -30857.72, -19894.66, -15913.70, -19158.62, -20836.43, -23413.83, -22005.43, 0.000, 0.000, 0.000, 10:40:41.550, 1583739641550
62, -26037.41, -30911.93, -19983.44, -16006.42, -19717.32, -20880.28, -23641.37, -22251.14, 0.000, 0.000, 0.000, 10:40:41.550, 1583739641550
63, -26269.54, -30923.68, -20035.57, -16067.37, -20045.74, -20900.89, -23730.31, -22399.93, 0.000, 0.000, 0.000, 10:40:41.550, 1583739641550
64, -25970.80, -30875.36, -19982.55, -16001.50, -19722.51, -20864.77, -23563.03, -22256.28, 0.000, 0.000, 0.000, 10:40:41.550, 1583739641550
65, -25414.07, -30810.67, -19869.89, -15912.81, -19109.00, -20828.52, -23305.40, -21967.34, 0.000, 0.000, 0.000, 10:40:41.551, 1583739641551
66, -25545.79, -30859.40, -19884.27, -15904.61, -19149.54, -20829.01, -23407.21, -21997.42, 0.000, 0.000, 0.000, 10:40:41.551, 1583739641551
67, -26030.04, -30904.73, -19979.35, -16005.32, -19708.07, -20878.90, -23636.43, -22247.52, 0.000, 0.000, 0.000, 10:40:41.551, 1583739641551
68, -26266.58, -30906.07, -20036.37, -16070.14, -20046.85, -20899.42, -23725.95, -22399.51, 0.000, 0.000, 0.000, 10:40:41.551, 1583739641551
69, -25967.00, -30864.54, -19982.32, -16012.39, -19726.46, -20865.98, -23562.18, -22259.72, 0.008, -0.018, 0.974, 10:40:41.551, 1583739641551
70, -25408.61, -30809.58, -19865.38, -15919.63, -19104.59, -20826.66, -23299.66, -21967.41, 0.000, 0.000, 0.000, 10:40:41.551, 1583739641551
71, -25545.70, -30850.86, -19877.67, -15899.85, -19134.54, -20820.56, -23398.30, -21990.61, 0.000, 0.000, 0.000, 10:40:41.552, 1583739641552
72, -26029.81, -30892.77, -19973.85, -15997.17, -19697.61, -20870.94, -23631.20, -22241.21, 0.000, 0.000, 0.000, 10:40:41.552, 1583739641552
73, -26265.56, -30899.54, -20030.65, -16068.69, -20040.73, -20898.14, -23723.00, -22398.91, 0.000, 0.000, 0.000, 10:40:41.552, 1583739641552
74, -25980.01, -30879.85, -19985.10, -16017.08, -19730.91, -20872.28, -23565.91, -22268.64, 0.000, 0.000, 0.000, 10:40:42.005, 1583739642005
75, -25420.88, -30823.19, -19866.56, -15923.54, -19106.63, -20831.58, -23300.29, -21973.04, 0.000, 0.000, 0.000, 10:40:42.006, 1583739642006
76, -25547.02, -30860.05, -19877.49, -15906.31, -19135.37, -20827.60, -23395.79, -21995.48, 0.000, 0.000, 0.000, 10:40:42.006, 1583739642006
77, -26028.87, -30904.04, -19971.15, -15996.00, -19692.67, -20871.81, -23627.71, -22242.64, 0.000, 0.000, 0.000, 10:40:42.006, 1583739642006
